   W                 E1+_p1/2
 (MeV)      Re       DRe      Im       DIm
1125.893    1.197    0.159   -0.046    0.222
1127.891    1.246    0.159   -0.058    0.217
1129.903    1.239    0.161   -0.078    0.228
1131.911    1.087    0.310   -0.095    0.248
1133.915    1.259    0.312   -0.226    0.252
1135.841    1.051    0.083   -0.107    0.160
1135.916    1.049    0.085   -0.109    0.164
1137.913    1.028    0.082   -0.288    0.161
1139.396    1.273    0.089   -0.266    0.166
1139.923    0.983    0.080   -0.202    0.181
1141.905    1.056    0.152   -0.373    0.611
1142.931    1.346    0.152    0.154    0.618
1143.916    1.233    0.150   -0.140    0.614
1145.916    1.244    0.150   -0.075    0.617
1146.464    1.252    0.156   -0.150    0.615
1147.855    1.196    0.150   -0.053    0.615
1149.905    1.278    0.097   -0.042    0.156
1149.986    1.270    0.099   -0.050    0.167
1151.886    1.280    0.096   -0.112    0.155
1153.497    1.218    0.097    0.118    0.159
1153.880    1.261    0.097   -0.083    0.157
1155.862    0.772    0.313    0.053    0.178
1157.006    1.593    0.139    0.109    0.195
1157.849    1.689    0.138    0.064    0.194
1159.841    1.676    0.139    0.122    0.195
1160.504    1.270    0.092    0.044    0.153
1161.821    1.140    0.091    0.029    0.153
1163.798    1.276    0.099   -0.113    0.171
1163.991    1.290    0.095   -0.079    0.165
1165.780    1.148    0.083    0.101    0.150
1167.468    1.226    0.083    0.071    0.143
1167.758    1.179    0.078    0.125    0.136
1169.733    1.100    0.077    0.051    0.133
1170.951    1.335    0.137    0.193    0.173
1171.680    1.269    0.144    0.133    0.186
1173.680    1.227    0.131    0.117    0.162
1174.336    1.332    0.077   -0.255    0.144
1175.653    1.463    0.067   -0.262    0.132
1177.631    1.291    0.070   -0.137    0.126
1177.870    1.199    0.076   -0.015    0.133
1179.597    1.198    0.067   -0.046    0.123
1181.306    1.192    0.075   -0.006    0.130
1181.560    1.216    0.065    0.025    0.121
1183.528    1.219    0.066    0.130    0.102
1184.748    1.264    0.078    0.079    0.112
1185.493    1.308    0.069    0.019    0.096
1187.454    1.126    0.090   -0.052    0.121
1188.180    1.245    0.098   -0.107    0.131
1189.412    1.185    0.088   -0.025    0.121
1191.366    0.858    0.082    0.119    0.118
1191.603    1.226    0.093   -0.219    0.122
1193.334    0.998    0.083    0.014    0.115
1195.015    1.307    0.103   -0.285    0.122
1195.235    1.329    0.083   -0.248    0.112
1197.235    1.428    0.108   -0.124    0.115
1198.426    1.411    0.126   -0.106    0.119
1199.193    1.193    0.107    0.144    0.116
1201.038    1.042    0.082    0.114    0.093
1201.819    1.419    0.101   -0.161    0.094
1202.950    1.103    0.114    0.089    0.121
1204.852    1.664    0.118   -0.266    0.115
1205.210    1.585    0.134   -0.237    0.121
1206.751    1.237    0.095    0.027    0.103
1208.600    1.331    0.114   -0.017    0.110
1208.646    1.322    0.095    0.014    0.101
1210.539    1.300    0.097    0.072    0.103
1211.987    1.511    0.120   -0.077    0.105
1212.429    0.745    0.097    0.220    0.098
1214.315    1.002    0.088    0.161    0.077
1215.273    0.783    0.113    0.205    0.078
1216.207    1.106    0.086    0.153    0.078
1218.049    1.302    0.092    0.010    0.071
1218.712    1.312    0.111    0.020    0.071
1219.951    1.145    0.119    0.041    0.091
1221.826    1.322    0.110   -0.082    0.089
1222.048    1.258    0.119   -0.085    0.091
1223.690    1.348    0.101    0.021    0.086
1225.399    0.794    0.136    0.146    0.087
1225.560    1.322    0.103    0.096    0.086
1227.419    1.311    0.100    0.117    0.085
1228.733    1.252    0.104    0.015    0.076
1229.275    1.238    0.092    0.085    0.073
1231.128    1.252    0.104    0.038    0.084
1232.065    1.141    0.101    0.084    0.081
1232.979    1.179    0.108    0.157    0.083
1234.819    1.328    0.128   -0.097    0.123
1235.389    1.256    0.136   -0.096    0.126
1236.664    1.250    0.130    0.032    0.123
1238.514    1.440    0.105   -0.184    0.087
1238.696    1.209    0.102   -0.212    0.089
1240.301    1.595    0.108   -0.118    0.110
1242.009    1.223    0.118   -0.317    0.111
1242.183    1.588    0.105   -0.283    0.110
1244.002    1.508    0.097   -0.086    0.084
1245.306    1.291    0.104   -0.147    0.085
1245.826    1.518    0.102   -0.269    0.093
1247.647    1.297    0.105    0.019    0.084
1248.594    1.388    0.106    0.034    0.085
1249.466    1.389    0.103   -0.045    0.082
1251.274    1.333    0.145   -0.134    0.146
1251.896    1.309    0.149   -0.082    0.148
1253.095    1.350    0.142   -0.069    0.147
1254.883    1.386    0.113   -0.007    0.115
1255.085    1.417    0.117    0.021    0.117
1256.684    1.357    0.111   -0.069    0.115
1258.437    0.964    0.128    0.088    0.110
1258.482    1.056    0.123    0.111    0.109
1260.285    1.116    0.121    0.131    0.109
1261.691    1.208    0.102    0.114    0.089
1262.026    1.257    0.098    0.100    0.088
1263.861    1.377    0.116    0.242    0.107
1264.944    1.219    0.112    0.176    0.097
1265.649    1.471    0.138   -0.047    0.151
1267.412    1.128    0.137   -0.171    0.149
1268.189    1.214    0.140   -0.057    0.150
1269.187    1.363    0.114   -0.009    0.125
1270.960    1.363    0.114    0.018    0.125
1271.433    1.303    0.114    0.046    0.124
1272.731    1.265    0.110   -0.022    0.125
1274.477    1.221    0.117    0.119    0.111
1274.661    1.181    0.117    0.086    0.113
1276.250    1.231    0.117    0.102    0.111
1278.006    1.110    0.099    0.014    0.104
1279.752    0.925    0.091   -0.100    0.099
1281.108    0.946    0.137    0.050    0.143
1281.510    1.110    0.135    0.031    0.142
1283.215    0.921    0.150    0.012    0.145
1284.319    1.135    0.113   -0.011    0.125
1284.991    1.264    0.120   -0.019    0.130
1286.720    1.282    0.125   -0.116    0.135
1287.522    1.184    0.118    0.049    0.126
1288.447    1.193    0.092    0.126    0.124
1290.179    1.206    0.094    0.031    0.126
1290.724    1.137    0.095    0.011    0.128
1291.902    1.019    0.145   -0.141    0.141
1293.614    0.985    0.154   -0.180    0.158
1293.846    1.159    0.114    0.078    0.162
1295.332    1.130    0.123    0.048    0.181
1297.041    1.160    0.100    0.093    0.143
1297.098    1.119    0.102    0.172    0.144
1298.754    1.196    0.102    0.045    0.155
1300.263    1.171    0.103    0.100    0.155
1300.450    1.202    0.103    0.010    0.155
1302.152    1.159    0.103    0.018    0.156
1303.434    0.962    0.164    0.139    0.257
1303.816    1.092    0.165    0.123    0.257
1305.542    1.045    0.164    0.125    0.257
1306.590    1.037    0.164    0.201    0.255
1307.222    1.036    0.163    0.255    0.256
1308.901    1.058    0.162    0.234    0.256
1309.746    0.995    0.102    0.069    0.176
1310.577    0.957    0.108    0.062    0.181
1312.251    0.946    0.107    0.038    0.181
1312.895    0.999    0.101    0.051    0.176
1313.916    0.992    0.102    0.003    0.177
1315.579    1.118    0.163    0.089    0.221
1316.035    1.163    0.162    0.132    0.219
1317.240    1.059    0.192    0.100    0.237
1318.898    1.173    0.202    0.133    0.274
1320.548    1.068    0.204    0.267    0.275
1322.174    0.829    0.125    0.172    0.214
1323.847    0.851    0.125    0.174    0.215
1325.406    1.178    0.159    0.180    0.328
1325.477    1.212    0.166    0.142    0.331
1327.118    1.218    0.165    0.076    0.331
1328.531    1.210    0.159    0.163    0.328
1328.743    1.278    0.167    0.072    0.331
1330.373    1.048    0.142    0.118    0.264
1331.557    1.067    0.135    0.138    0.261
1331.987    1.074    0.141    0.087    0.263
1333.606    1.094    0.141    0.059    0.262
1334.732    1.092    0.124    0.161    0.258
1335.217    1.029    0.130    0.086    0.262
1336.825    1.010    0.151    0.068    0.275
1337.807    1.118    0.147    0.152    0.267
1338.438    1.036    0.144    0.047    0.277
1340.000    1.129    0.152   -0.055    0.345
1340.896    1.154    0.142    0.048    0.341
1341.631    1.121    0.152   -0.052    0.351
1343.211    1.128    0.147    0.001    0.344
1343.972    1.102    0.142    0.131    0.342
1344.809    1.129    0.148   -0.043    0.343
1346.378    1.082    0.119   -0.213    0.232
1347.040    1.106    0.110   -0.110    0.230
1347.959    1.084    0.116   -0.188    0.232
1349.531    1.154    0.126   -0.216    0.223
1350.101    0.969    0.121   -0.240    0.256
1351.095    0.945    0.114   -0.192    0.247
1352.663    0.987    0.121   -0.218    0.263
1353.156    0.976    0.120   -0.229    0.260
1354.223    0.980    0.114   -0.210    0.246
1355.767    1.098    0.123   -0.374    0.281
1356.203    1.164    0.114   -0.254    0.272
1357.296    1.081    0.128   -0.383    0.285
1358.864    1.103    0.124   -0.388    0.282
1359.244    1.148    0.122   -0.477    0.277
1360.410    1.132    0.121   -0.505    0.277
1361.954    1.000    0.126   -0.329    0.253
1362.285    0.991    0.125   -0.359    0.249
1363.469    0.991    0.125   -0.341    0.252
1364.996    1.014    0.123   -0.322    0.246
1366.528    1.049    0.150   -0.150    0.270
1368.030    1.082    0.125   -0.203    0.265
1368.264    1.052    0.136   -0.170    0.267
1369.545    1.090    0.143   -0.134    0.269
1371.065    1.181    0.138   -0.518    0.249
1371.353    1.151    0.111   -0.464    0.241
1372.556    1.205    0.134   -0.519    0.250
1374.032    1.206    0.136   -0.519    0.249
1374.353    1.222    0.140   -0.554    0.251
1375.561    1.305    0.116   -0.424    0.245
1377.034    1.318    0.113   -0.451    0.246
1377.347    1.028    0.119   -0.131    0.246
1378.518    1.022    0.127   -0.209    0.253
1379.994    0.950    0.121   -0.347    0.248
1380.341    0.995    0.119   -0.359    0.245
1381.483    0.982    0.106   -0.201    0.186
1382.928    1.115    0.116    0.063    0.186
1383.329    1.047    0.146   -0.358    0.264
1384.413    1.049    0.148   -0.320    0.267
1385.863    1.070    0.148   -0.340    0.267
1386.310    1.034    0.146   -0.350    0.264
1387.318    1.038    0.146   -0.349    0.266
1388.771    0.953    0.126   -0.260    0.256
1389.278    0.960    0.125   -0.293    0.254
1390.183    0.954    0.126   -0.283    0.257
1391.660    0.972    0.127   -0.276    0.256
1392.246    0.978    0.125   -0.303    0.254
1393.088    1.058    0.146   -0.489    0.281
1394.522    1.215    0.150   -0.315    0.281
1395.202    1.061    0.144   -0.511    0.279
1395.941    1.044    0.146   -0.477    0.281
1397.359    1.076    0.102   -0.094    0.156
1398.158    1.118    0.094   -0.069    0.154
1398.788    1.081    0.101   -0.099    0.155
1400.189    1.071    0.104   -0.164    0.158
1401.107    1.115    0.094   -0.177    0.154
1401.589    1.093    0.104   -0.165    0.158
1403.001    1.068    0.164   -0.034    0.190
1404.371    1.040    0.163   -0.051    0.190
1405.787    0.989    0.164   -0.094    0.190
1407.168    0.989    0.172   -0.119    0.190
1408.548    0.999    0.172   -0.111    0.190
1409.892    1.059    0.114   -0.158    0.185
1409.919    1.054    0.123   -0.135    0.189
1411.296    1.037    0.123   -0.151    0.190
1412.658    1.047    0.124   -0.149    0.188
1412.811    1.055    0.115   -0.160    0.184
1414.019    0.880    0.103    0.333    0.146
1415.379    0.834    0.107    0.306    0.146
1416.730    0.847    0.107    0.304    0.146
1418.048    1.075    0.095   -0.046    0.143
1418.623    1.078    0.080   -0.058    0.139
1419.417    1.072    0.096   -0.054    0.143
1420.745    1.094    0.094   -0.100    0.145
1421.517    1.239    0.076   -0.022    0.143
1422.078    1.176    0.084    0.028    0.146
1423.397    1.062    0.171    0.069    0.197
1424.722    1.057    0.171    0.055    0.197
1426.038    1.053    0.171    0.049    0.197
1427.294    1.113    0.165    0.035    0.196
1427.347    0.970    0.174    0.176    0.187
1428.654    0.940    0.176    0.179    0.187
1429.961    0.891    0.132    0.186    0.186
1430.171    0.884    0.126    0.185    0.183
1431.226    0.895    0.133    0.178    0.187
1432.537    0.887    0.123    0.026    0.171
1433.035    0.877    0.115    0.022    0.167
1433.814    0.885    0.123    0.031    0.171
1435.096    0.906    0.124    0.034    0.169
1435.913    0.887    0.120    0.028    0.169
1436.370    0.930    0.176    0.146    0.191
1437.650    0.933    0.175    0.130    0.191
1438.902    0.933    0.177    0.142    0.191
1440.160    0.862    0.177    0.073    0.192
1441.424    0.912    0.139    0.065    0.187
1441.612    0.927    0.135    0.148    0.183
1442.647    0.950    0.141    0.130    0.185
1443.902    0.805    0.128    0.215    0.170
1444.441    0.789    0.121    0.014    0.169
1445.142    0.812    0.130    0.195    0.171
1446.998    0.588    0.182    0.170    0.171
1447.277    0.656    0.180    0.149    0.170
1449.453    0.567    0.115    0.276    0.168
1450.107    0.617    0.108    0.187    0.169
1451.885    0.583    0.115    0.274    0.168
1452.925    0.604    0.108    0.132    0.169
1454.281    0.809    0.093    0.484    0.117
1455.738    0.834    0.084    0.323    0.116
1456.679    0.820    0.090    0.343    0.117
1458.546    0.710    0.180    0.310    0.189
1459.047    0.624    0.180    0.205    0.189
1461.348    0.623    0.180    0.208    0.188
1461.393    0.733    0.183    0.325    0.188
1463.721    0.829    0.130    0.374    0.162
1464.138    0.683    0.126    0.237    0.162
1466.034    0.674    0.128    0.233    0.162
1466.923    0.679    0.173    0.089    0.149
1468.323    0.686    0.173    0.085    0.149
1469.715    0.834    0.114    0.058    0.150
1470.590    0.819    0.115    0.058    0.150
1472.413    0.775    0.114    0.073    0.150
1472.840    0.764    0.125    0.305    0.177
1475.062    0.920    0.126    0.427    0.177
1475.253    0.797    0.124    0.335    0.177
1477.280    0.929    0.126    0.424    0.177
1477.998    0.722    0.189    0.280    0.145
1479.463    0.753    0.190    0.306    0.145
1480.750    0.641    0.125    0.475    0.135
1481.631    0.635    0.127    0.478    0.136
1483.491    0.900    0.091    0.281    0.134
1483.782    0.892    0.094    0.277    0.134
1485.906    0.891    0.095    0.279    0.134
1488.026    0.924    0.117    0.344    0.131
1488.959    0.950    0.113    0.349    0.130
1490.111    0.944    0.116    0.344    0.131
1491.685    0.948    0.113    0.347    0.130
1492.188    0.942    0.116    0.347    0.131
1494.236    0.735    0.099    0.434    0.138
1494.400    0.744    0.094    0.443    0.138
1496.282    0.731    0.099    0.437    0.139
1497.109    0.656    0.090    0.382    0.139
1498.293    0.646    0.094    0.369    0.140
1499.814    0.803    0.095    0.105    0.119
1500.290    0.790    0.103    0.092    0.120
1502.277    0.810    0.103    0.105    0.121
1502.515    0.826    0.096    0.115    0.119
1504.231    0.927    0.107    0.131    0.155
1505.141    0.939    0.100    0.163    0.154
1506.188    0.942    0.109    0.172    0.155
1507.882    0.887    0.096    0.003    0.145
1508.112    0.877    0.106    0.003    0.146
1510.014    0.889    0.107    0.019    0.147
1510.549    0.808    0.093    0.018    0.104
1511.921    0.786    0.105    0.016    0.107
1513.217    0.736    0.080   -0.028    0.097
1513.887    0.742    0.094   -0.050    0.119
1515.875    0.838    0.083   -0.020    0.118
1515.918    0.841    0.089   -0.005    0.120
1518.015    0.763    0.081   -0.013    0.101
1518.528    0.770    0.071   -0.040    0.098
1520.171    0.759    0.080   -0.024    0.101
1521.176    0.746    0.071   -0.053    0.099
1522.360    1.057    0.116    0.040    0.145
1523.814    1.085    0.111    0.040    0.144
1524.553    1.074    0.116    0.063    0.146
1526.724    0.780    0.080   -0.147    0.088
1528.843    0.799    0.079   -0.136    0.089
1529.070    0.823    0.072   -0.134    0.086
1530.891    0.962    0.084   -0.202    0.087
1531.681    1.001    0.074   -0.217    0.083
1532.857    0.983    0.081   -0.201    0.086
1534.307    1.046    0.075   -0.195    0.083
1534.705    1.075    0.081   -0.139    0.087
1536.452    0.980    0.082   -0.170    0.088
1536.843    0.989    0.075   -0.193    0.084
1538.069    0.979    0.082   -0.165    0.089
1539.502    0.981    0.075   -0.198    0.084
1539.911    0.968    0.083   -0.174    0.090
1542.078    0.942    0.078   -0.227    0.072
1544.662    0.864    0.089   -0.196    0.075
1547.235    0.855    0.081   -0.214    0.074
1549.804    0.800    0.098   -0.216    0.081
1552.363    0.842    0.095   -0.204    0.080
1554.912    0.779    0.095   -0.231    0.080
1557.462    0.909    0.059   -0.208    0.059
1559.996    0.910    0.058   -0.215    0.060
1562.532    1.065    0.055   -0.119    0.067
1565.004    1.053    0.055   -0.127    0.068
1567.574    1.059    0.054   -0.126    0.068
1570.074    1.025    0.082    0.162    0.097
1573.823    1.059    0.081    0.150    0.098
1577.556    1.093    0.079    0.105    0.091
1580.035    1.100    0.079    0.073    0.091
1582.509    1.103    0.079    0.081    0.091
1584.973    0.947    0.074    0.046    0.092
1587.428    0.950    0.073    0.030    0.091
1589.891    1.055    0.055   -0.155    0.064
1592.273    1.053    0.056   -0.088    0.067
1594.764    1.021    0.056   -0.061    0.066
1597.186    1.020    0.050    0.020    0.061
1599.605    1.008    0.050    0.028    0.061
1602.020    1.008    0.049    0.020    0.061
1604.425    1.038    0.045   -0.004    0.062
1606.821    1.046    0.045   -0.043    0.060
1609.213    1.041    0.045   -0.042    0.060
1611.596    0.901    0.045    0.191    0.055
1613.970    0.874    0.045    0.212    0.055
1616.346    0.879    0.045    0.201    0.055
1618.654    0.937    0.051    0.023    0.064
1621.058    0.934    0.052    0.022    0.064
1623.395    0.945    0.053    0.007    0.063
1625.734    0.870    0.057    0.064    0.069
1628.064    0.874    0.057    0.066    0.069
1630.385    0.876    0.056    0.081    0.069
1632.702    0.886    0.056    0.090    0.069
1635.011    0.905    0.056    0.061    0.069
1637.311    0.889    0.056    0.088    0.069
1639.601    0.830    0.054    0.301    0.065
1641.894    0.810    0.054    0.306    0.065
1644.121    0.827    0.055    0.311    0.065
1646.442    0.815    0.055    0.321    0.065
1648.692    0.986    0.048    0.069    0.063
1650.950    0.991    0.049    0.091    0.063
1653.193    0.979    0.049    0.081    0.063
1655.433    0.955    0.053    0.302    0.059
1657.665    0.960    0.053    0.337    0.059
1659.888    0.943    0.053    0.339    0.059
1662.102    0.935    0.053    0.348    0.059
1664.308    0.942    0.053    0.373    0.059
1666.517    0.928    0.053    0.344    0.059
1668.660    0.788    0.073    0.361    0.051
1670.891    0.791    0.073    0.372    0.051
1673.063    0.784    0.073    0.382    0.051
1675.232    0.780    0.074    0.420    0.050
1677.392    0.899    0.059    0.392    0.064
1679.545    0.896    0.059    0.402    0.064
1681.694    0.902    0.058    0.410    0.064
1683.829    0.888    0.057    0.374    0.064
1685.957    0.935    0.047    0.608    0.049
1688.087    0.928    0.047    0.624    0.049
1690.159    0.967    0.048    0.658    0.050
1692.306    0.929    0.048    0.642    0.050
1694.400    0.920    0.048    0.651    0.050
1696.492    0.886    0.049    0.630    0.051
1698.576    0.793    0.048    0.660    0.054
1700.646    0.797    0.048    0.677    0.054
1702.714    0.780    0.052    0.552    0.040
1704.773    0.773    0.052    0.559    0.040
1706.825    0.762    0.052    0.557    0.040
1708.874    0.793    0.054    0.558    0.038
1710.872    0.773    0.043    0.593    0.043
1712.938    0.764    0.042    0.591    0.042
1714.953    0.758    0.041    0.592    0.042
1716.965    0.705    0.044    0.637    0.047
1718.969    0.725    0.043    0.599    0.049
1724.930    0.525    0.035    0.472    0.036
1726.904    0.528    0.035    0.468    0.036
1730.827    0.516    0.034    0.439    0.034
1735.678    0.655    0.035    0.306    0.040
1739.528    0.627    0.034    0.294    0.040
1745.241    0.380    0.038    0.450    0.049
1749.001    0.366    0.038    0.455    0.049
1753.678    0.468    0.033   -0.007    0.041
1759.212    0.529    0.035    0.079    0.044
1763.766    0.557    0.038    0.058    0.048
1767.385    0.490    0.037    0.219    0.051
1770.965    0.485    0.037    0.236    0.050
1774.511    0.456    0.039    0.246    0.054
1778.029    0.445    0.027    0.069    0.041
1781.509    0.444    0.032    0.008    0.049
1784.971    0.411    0.030    0.038    0.045
1790.094    0.425    0.029    0.245    0.040
1793.471    0.444    0.030    0.244    0.041
1796.806    0.424    0.030    0.232    0.041
1800.129    0.311    0.030   -0.063    0.042
1803.415    0.320    0.029   -0.073    0.042
1806.669    0.341    0.022   -0.072    0.038
1809.896    0.390    0.025    0.086    0.040
1813.082    0.399    0.024    0.075    0.041
1816.251    0.398    0.027    0.091    0.038
1819.390    0.385    0.030    0.102    0.040
1822.497    0.416    0.022    0.073    0.042
1825.562    0.408    0.026    0.020    0.043
1828.623    0.412    0.026    0.022    0.043
1831.643    0.416    0.026    0.021    0.043
1834.637    0.426    0.026    0.033    0.042
1838.336    0.361    0.032    0.092    0.052
1841.997    0.359    0.029    0.087    0.053
1844.898    0.363    0.031    0.110    0.046
1847.754    0.397    0.036   -0.044    0.041
1852.035    0.386    0.043   -0.058    0.041
1854.976    0.398    0.047   -0.048    0.041
1858.008    0.404    0.048   -0.048    0.041
1861.147    0.406    0.051   -0.048    0.041
1864.365    0.411    0.054   -0.043    0.042
1869.276    0.428    0.034   -0.065    0.041
1872.541    0.409    0.039   -0.060    0.040
1875.750    0.414    0.035    0.015    0.028
1878.864    0.404    0.032    0.021    0.026
1887.394    0.360    0.033   -0.016    0.027
1889.902    0.361    0.037   -0.016    0.028
1894.385    0.326    0.026   -0.045    0.028
