   W                 E3-_3/2
 (MeV)      Re       DRe      Im       DIm
1125.893    0.134    0.161    0.399    0.139
1127.891   -0.491    0.160    0.642    0.137
1129.903    0.278    0.130    0.317    0.217
1131.911   -0.118    0.128    0.428    0.247
1133.915    0.531    0.125    0.925    0.197
1135.841   -0.340    0.128    0.520    0.123
1135.916   -0.219    0.141    0.463    0.129
1137.913   -0.442    0.140    0.163    0.126
1139.396    0.801    0.113    0.095    0.258
1139.923    0.172    0.104    0.473    0.299
1141.905   -0.740    0.131   -0.107    0.138
1142.931    0.934    0.102   -0.234    0.340
1143.916   -1.351    0.137    0.317    0.270
1145.916   -0.187    0.147    0.272    0.238
1146.464   -0.735    0.135    0.685    0.173
1147.855   -0.805    0.160    0.486    0.175
1149.905    0.054    0.125   -0.516    0.214
1149.986   -0.040    0.142   -0.356    0.273
1151.886    0.555    0.109    0.091    0.280
1153.497   -0.062    0.160    0.754    0.187
1153.880    0.237    0.117   -0.627    0.197
1155.862   -0.181    0.166    0.650    0.222
1157.006    0.051    0.159    0.617    0.187
1157.849   -0.399    0.167    0.596    0.179
1159.841   -0.386    0.165    0.592    0.155
1160.504   -0.467    0.175    0.639    0.155
1161.821    0.467    0.146    0.555    0.186
1163.798    0.185    0.166   -0.206    0.224
1163.991    0.216    0.151   -0.368    0.196
1165.780   -0.092    0.160   -0.092    0.261
1167.468   -0.258    0.196   -0.530    0.424
1167.758   -0.023    0.157   -0.518    0.361
1169.733   -0.151    0.171    0.462    0.198
1170.951   -0.665    0.216    0.408    0.196
1171.680    0.255    0.199   -0.552    0.365
1173.680   -0.821    0.174    0.332    0.187
1174.336   -0.176    0.217    0.793    0.259
1175.653   -0.839    0.198    1.533    0.154
1177.631   -0.253    0.140   -0.223    0.199
1177.870   -0.161    0.211    0.430    0.214
1179.597   -0.522    0.179    0.373    0.178
1181.306   -1.142    0.237   -0.043    0.247
1181.560   -1.184    0.181   -0.169    0.204
1183.528   -0.087    0.175   -0.062    0.164
1184.748   -0.887    0.248    0.016    0.240
1185.493    0.152    0.159   -0.211    0.167
1187.454    0.226    0.163    0.032    0.164
1188.180   -0.757    0.234   -0.053    0.241
1189.412   -0.877    0.197   -0.350    0.198
1191.366   -0.225    0.174    0.436    0.164
1191.603   -0.177    0.218    0.114    0.201
1193.334   -0.156    0.178    0.336    0.169
1195.015   -0.069    0.238    0.289    0.226
1195.235   -0.749    0.198   -0.554    0.186
1197.235   -0.723    0.201   -0.053    0.169
1198.426    0.486    0.251    0.114    0.207
1199.193   -1.494    0.207   -0.279    0.180
1201.038   -0.890    0.207    0.837    0.157
1201.819    0.187    0.259   -0.003    0.218
1202.950   -1.037    0.238    1.203    0.149
1204.852   -0.296    0.201   -0.563    0.166
1205.210    0.275    0.271    0.292    0.220
1206.751   -1.192    0.238   -0.230    0.175
1208.600   -1.024    0.352    0.401    0.207
1208.646   -1.227    0.241   -0.013    0.159
1210.539   -1.409    0.211   -0.423    0.185
1211.987   -0.562    0.220    0.530    0.196
1212.429   -1.971    0.263    0.293    0.165
1214.315   -1.546    0.227   -0.094    0.173
1215.273   -1.733    0.301    0.421    0.219
1216.207   -1.542    0.205    0.055    0.158
1218.049   -1.141    0.197   -0.637    0.152
1218.712   -0.303    0.248   -0.680    0.206
1219.951   -1.107    0.205   -0.906    0.159
1221.826   -0.453    0.203   -0.415    0.148
1222.048   -0.317    0.198    0.465    0.176
1223.690   -0.927    0.202   -0.889    0.152
1225.399   -0.607    0.276    1.217    0.199
1225.560   -0.878    0.224   -1.241    0.153
1227.419   -0.556    0.229   -1.167    0.142
1228.733   -0.058    0.229    0.817    0.161
1229.275   -0.078    0.243   -1.240    0.148
1231.128   -0.232    0.357   -1.188    0.483
1232.065   -0.056    0.280   -1.094    0.202
1232.979   -0.626    0.261   -1.521    0.406
1234.819    0.051    0.238   -0.809    0.154
1235.389   -0.218    0.298   -1.186    0.198
1236.664   -0.689    0.189   -1.076    0.173
1238.514   -0.703    0.201   -0.607    0.172
1238.696   -0.402    0.258   -1.142    0.191
1240.301    0.101    0.225   -0.444    0.160
1242.009   -0.655    0.237    0.326    0.200
1242.183    0.043    0.220   -0.357    0.170
1244.002   -0.044    0.285   -0.916    0.182
1245.306   -0.021    0.266   -1.314    0.210
1245.826   -0.203    0.224   -0.220    0.192
1247.647   -0.158    0.250   -0.241    0.194
1248.594    0.342    0.345   -1.492    0.188
1249.466    0.084    0.293   -0.859    0.180
1251.274   -0.568    0.244   -1.012    0.180
1251.896   -0.096    0.269   -1.454    0.190
1253.095   -0.402    0.213   -0.974    0.176
1254.883   -0.135    0.235   -1.148    0.174
1255.085    0.037    0.241   -1.176    0.186
1256.684   -0.104    0.217   -0.848    0.165
1258.437   -0.125    0.241   -1.356    0.178
1258.482   -0.186    0.216   -1.086    0.166
1260.285    0.037    0.178   -0.896    0.164
1261.691    0.119    0.205   -1.026    0.177
1262.026   -0.137    0.179   -0.639    0.161
1263.861    0.005    0.283   -0.294    0.285
1264.944    0.025    0.246   -0.845    0.226
1265.649   -0.300    0.185   -0.113    0.169
1267.412   -0.365    0.195   -1.322    0.171
1268.189    0.089    0.247   -1.342    0.212
1269.187   -0.314    0.231   -0.687    0.200
1270.960   -0.542    0.209   -0.684    0.199
1271.433   -0.040    0.250   -1.726    0.173
1272.731   -0.324    0.214   -1.376    0.177
1274.477   -0.539    0.197   -0.717    0.184
1274.661   -0.329    0.214   -1.189    0.187
1276.250   -0.234    0.194   -0.870    0.181
1278.006   -0.469    0.230   -0.960    0.213
1279.752   -0.211    0.237   -1.088    0.209
1281.108   -0.055    0.216   -0.997    0.179
1281.510   -0.400    0.187   -0.212    0.190
1283.215   -0.001    0.354   -1.042    0.264
1284.319   -0.263    0.198   -0.932    0.187
1284.991   -0.705    0.206   -0.729    0.231
1286.720   -0.958    0.223   -0.649    0.272
1287.522   -0.843    0.206   -0.398    0.198
1288.447   -0.546    0.211   -0.560    0.218
1290.179   -0.661    0.215   -0.505    0.228
1290.724   -0.638    0.215   -0.131    0.194
1291.902   -0.510    0.208   -0.596    0.263
1293.614   -0.489    0.210   -0.521    0.269
1293.846   -1.179    0.173    0.004    0.199
1295.332   -1.089    0.189   -0.097    0.229
1297.041   -0.748    0.144    0.205    0.193
1297.098   -1.137    0.121    0.294    0.167
1298.754   -0.719    0.152    0.072    0.196
1300.263   -1.154    0.122    0.212    0.166
1300.450   -0.704    0.153    0.033    0.193
1302.152   -0.951    0.136    0.067    0.203
1303.434   -0.770    0.158    0.298    0.116
1303.816   -0.217    0.193    0.299    0.145
1305.542   -0.288    0.198    0.188    0.144
1306.590    0.040    0.182    0.195    0.121
1307.222   -0.110    0.192    0.336    0.150
1308.901   -0.060    0.185    0.276    0.147
1309.746    0.309    0.221   -0.031    0.134
1310.577   -0.363    0.219    0.303    0.184
1312.251   -0.348    0.217    0.260    0.185
1312.895    0.286    0.216   -0.050    0.135
1313.916    0.123    0.220   -0.019    0.161
1315.579    0.092    0.213   -0.052    0.166
1316.035    0.266    0.211   -0.112    0.138
1317.240   -0.393    0.254    0.207    0.297
1318.898   -0.424    0.181    0.245    0.198
1320.548   -0.277    0.211    0.261    0.236
1322.174   -0.298    0.207    0.427    0.224
1323.847   -0.379    0.200    0.476    0.214
1325.406   -0.935    0.160    0.071    0.149
1325.477   -0.639    0.231    0.022    0.262
1327.118   -0.752    0.262   -0.183    0.265
1328.531   -0.894    0.155    0.054    0.143
1328.743   -0.677    0.275   -0.129    0.288
1330.373   -0.663    0.242   -0.011    0.276
1331.557   -0.783    0.166   -0.042    0.152
1331.987   -0.596    0.241   -0.097    0.267
1333.606   -0.700    0.237   -0.135    0.244
1334.732   -0.414    0.145    0.183    0.157
1335.217   -1.204    0.188   -0.334    0.251
1336.825   -1.067    0.240   -0.243    0.308
1337.807   -0.352    0.207    0.221    0.224
1338.438   -0.672    0.233   -0.268    0.315
1340.000   -0.501    0.200   -0.353    0.258
1340.896   -0.166    0.191   -0.214    0.140
1341.631   -0.582    0.247   -0.473    0.265
1343.211   -0.692    0.198   -0.393    0.234
1343.972   -1.087    0.125   -0.002    0.208
1344.809   -0.641    0.195   -0.496    0.239
1346.378   -0.475    0.206   -0.485    0.269
1347.040   -0.385    0.151   -0.192    0.142
1347.959   -0.642    0.182   -0.490    0.225
1349.531   -0.666    0.144   -0.250    0.172
1350.101   -0.682    0.163   -0.266    0.202
1351.095   -0.708    0.153   -0.436    0.198
1352.663   -0.629    0.190   -0.255    0.206
1353.156   -0.653    0.153   -0.279    0.216
1354.223   -0.586    0.157   -0.316    0.206
1355.767   -0.613    0.243   -0.573    0.268
1356.203   -0.506    0.157   -0.245    0.100
1357.296   -0.750    0.216   -0.477    0.229
1358.864   -0.639    0.245   -0.542    0.274
1359.244   -0.742    0.171   -0.405    0.236
1360.410   -0.648    0.185   -0.544    0.230
1361.954   -0.675    0.214   -0.433    0.206
1362.285   -0.740    0.177   -0.399    0.222
1363.469   -0.704    0.204   -0.451    0.199
1364.996   -0.600    0.150   -0.467    0.202
1366.528   -1.081    0.249   -0.186    0.304
1368.030   -0.481    0.203   -0.392    0.198
1368.264   -0.996    0.226   -0.188    0.319
1369.545   -1.257    0.203   -0.439    0.241
1371.065   -0.906    0.237   -0.139    0.268
1371.353   -1.105    0.113   -0.028    0.169
1372.556   -0.852    0.267   -0.094    0.266
1374.032   -0.897    0.242   -0.098    0.275
1374.353   -0.337    0.226   -0.125    0.214
1375.561   -1.032    0.187   -0.067    0.214
1377.034   -0.922    0.217   -0.067    0.220
1377.347   -1.027    0.097    0.069    0.142
1378.518   -0.881    0.225   -0.051    0.223
1379.994   -0.235    0.171   -0.027    0.277
1380.341   -0.384    0.086   -0.329    0.143
1381.483   -0.166    0.141   -0.688    0.233
1382.928   -0.821    0.156    0.092    0.220
1383.329   -0.262    0.097   -0.780    0.098
1384.413   -0.436    0.156    0.047    0.261
1385.863   -0.348    0.151    0.050    0.249
1386.310   -0.263    0.092   -0.723    0.098
1387.318   -0.306    0.133   -0.728    0.131
1388.771   -0.288    0.131   -0.695    0.140
1389.278   -0.259    0.093   -0.783    0.095
1390.183   -0.285    0.154   -0.795    0.130
1391.660   -0.378    0.145   -0.012    0.268
1392.246   -0.205    0.092   -0.734    0.111
1393.088   -0.273    0.150    0.110    0.223
1394.522   -0.886    0.118    0.046    0.165
1395.202   -0.488    0.079   -0.622    0.143
1395.941   -0.436    0.152    0.115    0.226
1397.359   -0.742    0.148   -0.738    0.104
1398.158   -0.741    0.094   -0.653    0.085
1398.788   -0.745    0.148   -0.751    0.096
1400.189   -0.947    0.130   -0.577    0.124
1401.107   -0.825    0.080   -0.672    0.082
1401.589   -0.905    0.141   -0.638    0.118
1403.001   -0.890    0.143   -0.692    0.092
1404.371   -0.947    0.128   -0.659    0.099
1405.787   -0.587    0.114    0.209    0.137
1407.168   -0.606    0.121    0.191    0.153
1408.548   -0.580    0.120    0.210    0.147
1409.892   -0.805    0.074    0.305    0.113
1409.919   -0.611    0.129    0.357    0.154
1411.296   -0.634    0.133    0.369    0.160
1412.658   -0.546    0.131    0.421    0.120
1412.811   -0.723    0.080    0.375    0.091
1414.019   -0.536    0.126    0.473    0.115
1415.379   -0.670    0.131    0.429    0.117
1416.730   -0.643    0.132    0.438    0.112
1418.048   -0.678    0.129    0.438    0.108
1418.623   -0.754    0.076    0.381    0.085
1419.417   -0.670    0.131    0.442    0.109
1420.745   -0.683    0.124    0.241    0.151
1421.517   -0.778    0.071   -0.111    0.095
1422.078   -1.025    0.112   -0.306    0.130
1423.397   -1.148    0.101   -0.260    0.100
1424.722   -1.110    0.115   -0.290    0.107
1426.038   -1.090    0.124   -0.279    0.115
1427.294   -0.868    0.075   -0.108    0.088
1427.347   -0.757    0.085    0.007    0.088
1428.654   -0.856    0.116    0.042    0.089
1429.961   -0.716    0.081    0.079    0.095
1430.171   -0.828    0.063    0.038    0.074
1431.226   -0.762    0.108    0.057    0.095
1432.537   -0.752    0.108    0.043    0.097
1433.035   -0.821    0.069    0.044    0.078
1433.814   -0.794    0.117    0.059    0.095
1435.096   -0.737    0.082    0.090    0.091
1435.913   -0.853    0.085    0.055    0.083
1436.370   -0.765    0.100    0.031    0.094
1437.650   -0.822    0.102    0.034    0.089
1438.902   -0.748    0.099    0.023    0.096
1440.160   -0.604    0.110    0.057    0.099
1441.424   -0.665    0.094    0.010    0.094
1441.612   -0.693    0.072   -0.139    0.063
1442.647   -0.667    0.127   -0.139    0.083
1443.902   -0.850    0.113   -0.143    0.075
1444.441   -0.536    0.059    0.059    0.067
1445.142   -0.839    0.118   -0.136    0.086
1446.998   -0.633    0.078    0.062    0.072
1447.277   -0.538    0.056    0.084    0.059
1449.453   -0.694    0.082    0.149    0.067
1450.107   -0.620    0.061   -0.149    0.053
1451.885   -0.725    0.090    0.136    0.069
1452.925   -0.587    0.066   -0.142    0.056
1454.281   -0.817    0.080   -0.135    0.062
1455.738   -0.695    0.061    0.112    0.051
1456.679   -0.754    0.079    0.124    0.057
1458.546   -0.648    0.059   -0.221    0.041
1459.047   -0.371    0.061   -0.149    0.063
1461.348   -0.373    0.052   -0.169    0.056
1461.393   -0.629    0.069    0.159    0.052
1463.721   -0.650    0.080    0.152    0.055
1464.138   -0.390    0.054   -0.180    0.057
1466.034   -0.422    0.068   -0.176    0.066
1466.923   -0.391    0.054   -0.174    0.059
1468.323   -0.403    0.066   -0.173    0.063
1469.715   -0.378    0.055   -0.175    0.056
1470.590   -0.417    0.067   -0.169    0.065
1472.413   -0.448    0.058   -0.198    0.061
1472.840   -0.453    0.069   -0.195    0.063
1475.062   -0.681    0.056    0.197    0.044
1475.253   -0.423    0.058   -0.192    0.059
1477.280   -0.649    0.056    0.230    0.045
1477.998   -0.419    0.059   -0.175    0.064
1479.463   -0.488    0.074   -0.143    0.065
1480.750   -0.460    0.060   -0.150    0.053
1481.631   -0.496    0.077   -0.138    0.067
1483.491   -0.452    0.062   -0.145    0.055
1483.782   -0.493    0.084   -0.139    0.073
1485.906   -0.501    0.088   -0.145    0.074
1488.026   -0.504    0.091   -0.187    0.075
1488.959   -0.454    0.064   -0.164    0.059
1490.111   -0.461    0.084   -0.161    0.073
1491.685   -0.437    0.055   -0.149    0.060
1492.188   -0.454    0.076   -0.151    0.072
1494.236   -0.512    0.086   -0.177    0.080
1494.400   -0.471    0.059   -0.156    0.064
1496.282   -0.515    0.089   -0.160    0.083
1497.109   -0.496    0.058   -0.114    0.063
1498.293   -0.495    0.082   -0.132    0.078
1499.814   -0.517    0.058   -0.117    0.064
1500.290   -0.533    0.095   -0.137    0.089
1502.277   -0.507    0.093   -0.101    0.092
1502.515   -0.471    0.061   -0.068    0.071
1504.231   -0.492    0.095   -0.140    0.090
1505.141   -0.496    0.061   -0.082    0.071
1506.188   -0.510    0.100   -0.062    0.105
1507.882   -0.501    0.058   -0.068    0.069
1508.112   -0.541    0.100   -0.076    0.104
1510.014   -0.522    0.102   -0.036    0.111
1510.549   -0.513    0.058   -0.074    0.071
1511.921   -0.576    0.102   -0.088    0.108
1513.217   -0.710    0.066   -0.212    0.073
1513.887   -0.742    0.096   -0.231    0.105
1515.875   -0.585    0.063    0.008    0.077
1515.918   -0.597    0.083    0.015    0.099
1518.015   -0.637    0.086    0.034    0.103
1518.528   -0.601    0.062    0.004    0.078
1520.171   -0.646    0.084    0.011    0.102
1521.176   -0.632    0.062   -0.018    0.079
1522.360   -0.675    0.082   -0.058    0.102
1523.814   -0.619    0.063    0.003    0.080
1524.553   -0.668    0.082    0.024    0.104
1526.724   -0.726    0.083   -0.057    0.108
1528.843   -0.700    0.079   -0.012    0.105
1529.070   -0.651    0.061    0.039    0.082
1530.891   -0.736    0.083    0.028    0.114
1531.681   -0.646    0.061    0.059    0.082
1532.857   -0.698    0.079    0.048    0.106
1534.307   -0.631    0.058    0.118    0.082
1534.705   -0.644    0.077    0.211    0.102
1536.452   -0.700    0.078    0.153    0.105
1536.843   -0.639    0.058    0.153    0.081
1538.069   -0.686    0.075    0.155    0.111
1539.502   -0.648    0.056    0.140    0.082
1539.911   -0.716    0.076    0.149    0.111
1542.078   -0.616    0.054    0.181    0.075
1544.662   -0.444    0.074    0.061    0.150
1547.235   -0.511    0.069    0.076    0.115
1549.804   -0.543    0.068    0.022    0.117
1552.363   -0.386    0.061    0.183    0.103
1554.912   -0.402    0.065   -0.028    0.106
1557.462   -0.448    0.066   -0.016    0.101
1559.996   -0.428    0.066   -0.004    0.100
1562.532   -0.438    0.066   -0.012    0.097
1565.004   -0.446    0.065   -0.017    0.094
1567.574   -0.446    0.065    0.024    0.089
1570.074   -0.491    0.065    0.054    0.093
1573.823   -0.435    0.081    0.222    0.087
1577.556   -0.429    0.069    0.222    0.085
1580.035   -0.361    0.074    0.227    0.097
1582.509   -0.428    0.073    0.279    0.090
1584.973   -0.464    0.074    0.158    0.093
1587.428   -0.422    0.070    0.158    0.094
1589.891   -0.351    0.084    0.007    0.090
1592.273   -0.319    0.074    0.256    0.106
1594.764   -0.320    0.073    0.248    0.103
1597.186   -0.295    0.081    0.108    0.111
1599.605   -0.358    0.080    0.113    0.107
1602.020   -0.345    0.073    0.125    0.098
1604.425   -0.381    0.068    0.114    0.087
1606.821   -0.382    0.088   -0.101    0.093
1609.213   -0.380    0.084   -0.073    0.096
1611.596   -0.366    0.089   -0.339    0.077
1613.970   -0.299    0.078   -0.243    0.096
1616.346   -0.325    0.078   -0.277    0.087
1618.654   -0.302    0.079   -0.265    0.102
1621.058   -0.325    0.077   -0.292    0.098
1623.395   -0.453    0.092   -0.169    0.079
1625.734   -0.253    0.080   -0.382    0.085
1628.064   -0.272    0.083   -0.377    0.081
1630.385   -0.268    0.078   -0.231    0.083
1632.702   -0.277    0.083   -0.197    0.094
1635.011   -0.312    0.101   -0.275    0.072
1637.311   -0.228    0.088   -0.139    0.078
1639.601    0.023    0.092   -0.146    0.068
1641.894   -0.120    0.096   -0.061    0.059
1644.121   -0.131    0.099   -0.021    0.059
1646.442   -0.160    0.100    0.008    0.057
1648.692   -0.219    0.104    0.076    0.054
1650.950   -0.242    0.108    0.139    0.055
1653.193   -0.241    0.105    0.122    0.054
1655.433    0.151    0.109    0.033    0.052
1657.665   -0.103    0.101    0.065    0.036
1659.888   -0.145    0.106    0.087    0.037
1662.102   -0.156    0.116    0.112    0.040
1664.308   -0.212    0.109    0.132    0.036
1666.517   -0.321    0.119    0.181    0.035
1668.660    0.010    0.120    0.251    0.034
1670.891   -0.079    0.120    0.245    0.034
1673.063   -0.115    0.121    0.247    0.033
1675.232   -0.324    0.121    0.272    0.035
1677.392   -0.266    0.121    0.311    0.032
1679.545   -0.313    0.120    0.307    0.032
1681.694   -0.351    0.119    0.306    0.029
1683.829   -0.408    0.121    0.317    0.032
1685.957   -0.102    0.119    0.546    0.033
1688.087   -0.129    0.120    0.542    0.033
1690.159   -0.311    0.118    0.441    0.042
1692.306   -0.412    0.118    0.391    0.046
1694.400   -0.450    0.116    0.358    0.047
1696.492   -0.454    0.111    0.286    0.050
1698.576   -0.382    0.112    0.451    0.052
1700.646   -0.416    0.114    0.486    0.052
1702.714   -0.413    0.112    0.461    0.052
1704.773   -0.440    0.110    0.420    0.053
1706.825   -0.469    0.109    0.385    0.054
1708.874   -0.570    0.108    0.317    0.069
1710.872   -0.516    0.104    0.543    0.070
1712.938   -0.526    0.102    0.516    0.068
1714.953   -0.532    0.099    0.476    0.069
1716.965   -0.599    0.092    0.090    0.100
1718.969   -0.610    0.100    0.178    0.114
1724.930   -0.671    0.073    0.033    0.090
1726.904   -0.657    0.071   -0.008    0.090
1730.827   -0.666    0.069   -0.015    0.083
1735.678   -0.698    0.062   -0.126    0.083
1739.528   -0.753    0.052   -0.254    0.086
1745.241   -0.660    0.050   -0.171    0.079
1749.001   -0.612    0.048   -0.182    0.074
1753.678   -0.527    0.049   -0.367    0.063
1759.212   -0.345    0.052   -0.529    0.066
1763.766   -0.280    0.057   -0.592    0.069
1767.385   -0.271    0.052   -0.444    0.067
1770.965   -0.315    0.052   -0.480    0.068
1774.511   -0.357    0.068   -0.464    0.077
1778.029   -0.382    0.053   -0.321    0.074
1781.509   -0.276    0.059   -0.447    0.070
1784.971   -0.384    0.058   -0.363    0.068
1790.094   -0.451    0.044   -0.238    0.067
1793.471   -0.437    0.045   -0.235    0.066
1796.806   -0.384    0.048   -0.209    0.063
1800.129   -0.487    0.060   -0.252    0.064
1803.415   -0.475    0.057   -0.240    0.064
1806.669   -0.391    0.069    0.033    0.098
1809.896   -0.398    0.049   -0.091    0.091
1813.082   -0.406    0.053   -0.097    0.077
1816.251   -0.389    0.056   -0.109    0.088
1819.390   -0.327    0.071   -0.055    0.089
1822.497   -0.454    0.043   -0.044    0.067
1825.562   -0.538    0.050    0.245    0.103
1828.623   -0.526    0.052    0.257    0.102
1831.643   -0.534    0.051    0.256    0.101
1834.637   -0.538    0.052    0.261    0.101
1838.336   -0.384    0.087    0.157    0.123
1841.997   -0.407    0.083    0.235    0.114
1844.898   -0.419    0.095    0.245    0.109
1847.754   -0.423    0.059    0.265    0.065
1852.035   -0.375    0.054    0.150    0.069
1854.976   -0.346    0.059    0.148    0.064
1858.008   -0.349    0.057    0.183    0.064
1861.147   -0.339    0.059    0.178    0.062
1864.365   -0.329    0.065    0.130    0.063
1869.276   -0.370    0.072    0.235    0.095
1872.541   -0.314    0.075    0.149    0.084
1875.750   -0.411    0.091    0.236    0.103
1878.864   -0.401    0.064    0.208    0.075
1887.394   -0.295    0.053    0.123    0.065
1889.902   -0.298    0.053    0.101    0.074
1894.385   -0.277    0.054    0.030    0.036
