   W                 M2-_p1/2
 (MeV)      Re       DRe      Im       DIm
1125.893    0.329    0.168    0.027    0.070
1127.891    0.299    0.177    0.057    0.056
1129.903    0.383    0.172   -0.039    0.077
1131.911    0.273    0.225    0.091    0.108
1133.915    0.279    0.221    0.062    0.059
1135.841    0.221    0.082   -0.024    0.064
1135.916    0.213    0.087   -0.016    0.063
1137.913    0.272    0.089   -0.048    0.091
1139.396    0.290    0.076    0.192    0.062
1139.923    0.228    0.078    0.162    0.119
1141.905    0.274    0.397    0.004    0.076
1142.931    0.388    0.391   -0.045    0.059
1143.916    0.638    0.392    0.014    0.093
1145.916    0.359    0.393   -0.083    0.102
1146.464    0.370    0.393   -0.109    0.088
1147.855    0.288    0.394   -0.001    0.065
1149.905    0.334    0.141    0.115    0.085
1149.986    0.325    0.142    0.121    0.096
1151.886    0.387    0.141   -0.095    0.076
1153.497    0.329    0.142   -0.002    0.065
1153.880    0.388    0.140   -0.036    0.072
1155.862    0.197    0.197   -0.017    0.076
1157.006    0.698    0.156   -0.029    0.071
1157.849    0.694    0.155    0.053    0.062
1159.841    0.696    0.155   -0.003    0.061
1160.504    0.317    0.084   -0.014    0.063
1161.821    0.364    0.081    0.024    0.057
1163.798    0.360    0.084    0.094    0.084
1163.991    0.371    0.083    0.102    0.079
1165.780    0.532    0.082   -0.057    0.082
1167.468    0.454    0.087    0.028    0.092
1167.758    0.469    0.082    0.013    0.073
1169.733    0.531    0.084   -0.159    0.066
1170.951    0.460    0.159    0.056    0.071
1171.680    0.652    0.162   -0.215    0.097
1173.680    0.346    0.159    0.187    0.070
1174.336    0.445    0.090   -0.006    0.056
1175.653    0.439    0.084   -0.024    0.036
1177.631    0.575    0.088    0.017    0.066
1177.870    0.525    0.094   -0.021    0.058
1179.597    0.625    0.091   -0.157    0.052
1181.306    0.658    0.103   -0.097    0.067
1181.560    0.617    0.094   -0.057    0.050
1183.528    0.410    0.096    0.056    0.040
1184.748    0.570    0.112   -0.127    0.066
1185.493    0.393    0.095    0.077    0.033
1187.454    0.412    0.117    0.053    0.035
1188.180    0.547    0.128   -0.084    0.064
1189.412    0.470    0.123   -0.033    0.043
1191.366    0.274    0.103    0.070    0.037
1191.603    0.417    0.112   -0.102    0.057
1193.334    0.231    0.103    0.042    0.036
1195.015    0.295    0.115   -0.056    0.054
1195.235    0.253    0.108   -0.034    0.045
1197.235    0.398    0.085    0.031    0.039
1198.426    0.124    0.095    0.128    0.058
1199.193    0.277    0.088    0.042    0.045
1201.038    0.451    0.070    0.041    0.033
1201.819    0.167    0.083    0.143    0.056
1202.950    0.618    0.107    0.116    0.028
1204.852    0.162    0.110    0.160    0.044
1205.210    0.309    0.118    0.171    0.052
1206.751    0.446    0.075    0.102    0.035
1208.600    0.543    0.092   -0.051    0.046
1208.646    0.447    0.073    0.011    0.031
1210.539    0.476    0.076    0.074    0.033
1211.987    0.708    0.087   -0.025    0.043
1212.429    0.592    0.086    0.101    0.029
1214.315    0.656    0.076    0.016    0.030
1215.273    0.758    0.099    0.040    0.041
1216.207    0.643    0.072   -0.031    0.027
1218.049    0.595    0.075    0.043    0.031
1218.712    0.417    0.105    0.060    0.046
1219.951    0.474    0.093    0.167    0.030
1221.826    0.508    0.095   -0.081    0.029
1222.048    0.589    0.101   -0.159    0.034
1223.690    0.519    0.090    0.087    0.031
1225.399    0.380    0.103   -0.010    0.031
1225.560    0.498    0.098    0.108    0.033
1227.419    0.544    0.097   -0.011    0.030
1228.733    0.632    0.097   -0.120    0.034
1229.275    0.533    0.096   -0.085    0.030
1231.128    0.413    0.115    0.068    0.082
1232.065    0.629    0.123    0.085    0.047
1232.979    0.350    0.113    0.110    0.074
1234.819    0.692    0.148   -0.002    0.031
1235.389    0.664    0.172    0.111    0.044
1236.664    0.513    0.145    0.023    0.034
1238.514    0.330    0.104    0.132    0.033
1238.696    0.311    0.130    0.003    0.058
1240.301    0.689    0.144   -0.040    0.032
1242.009    0.499    0.166   -0.071    0.049
1242.183    0.676    0.146    0.018    0.036
1244.002    0.286    0.105    0.056    0.040
1245.306    0.098    0.117    0.034    0.065
1245.826    0.360    0.104   -0.006    0.045
1247.647    0.438    0.084    0.112    0.037
1248.594    0.580    0.111    0.268    0.066
1249.466    0.335    0.100    0.014    0.045
1251.274    0.127    0.204    0.071    0.041
1251.896    0.218    0.212    0.127    0.057
1253.095    0.121    0.203    0.049    0.044
1254.883    0.305    0.106    0.011    0.047
1255.085    0.504    0.115    0.096    0.054
1256.684    0.370    0.106    0.010    0.045
1258.437    0.551    0.117    0.148    0.057
1258.482    0.487    0.100    0.111    0.041
1260.285    0.432    0.092    0.099    0.040
1261.691    0.675    0.087    0.138    0.046
1262.026    0.548    0.075    0.043    0.040
1263.861    0.508    0.079   -0.003    0.061
1264.944    0.621    0.109    0.139    0.055
1265.649    0.265    0.176   -0.023    0.042
1267.412    0.236    0.181   -0.045    0.050
1268.189    0.295    0.185    0.080    0.072
1269.187    0.387    0.096   -0.049    0.049
1270.960    0.351    0.091   -0.112    0.047
1271.433    0.513    0.106    0.167    0.067
1272.731    0.594    0.091    0.215    0.063
1274.477    0.386    0.108    0.001    0.048
1274.661    0.497    0.119    0.182    0.061
1276.250    0.453    0.108    0.002    0.045
1278.006    0.540    0.077    0.002    0.050
1279.752    0.613    0.069    0.174    0.072
1281.108    0.394    0.184    0.143    0.055
1281.510    0.389    0.180   -0.026    0.045
1283.215    0.282    0.185    0.026    0.058
1284.319    0.504    0.090    0.170    0.054
1284.991    0.538    0.088    0.098    0.051
1286.720    0.487    0.101    0.027    0.067
1287.522    0.625    0.079    0.075    0.054
1288.447    0.610    0.071    0.027    0.050
1290.179    0.638    0.070    0.087    0.051
1290.724    0.697    0.066   -0.059    0.057
1291.902    0.510    0.056    0.052    0.056
1293.614    0.555    0.065    0.061    0.058
1293.846    0.757    0.083    0.012    0.062
1295.332    0.691    0.086    0.019    0.064
1297.041    0.725    0.074    0.095    0.050
1297.098    0.844    0.062    0.118    0.042
1298.754    0.809    0.095    0.092    0.052
1300.263    0.926    0.085    0.140    0.041
1300.450    0.802    0.096    0.103    0.052
1302.152    0.840    0.091    0.103    0.051
1303.434    0.780    0.133    0.092    0.038
1303.816    0.505    0.138   -0.084    0.051
1305.542    0.568    0.138   -0.075    0.054
1306.590    0.359    0.134   -0.190    0.060
1307.222    0.632    0.135    0.027    0.049
1308.901    0.581    0.136   -0.024    0.053
1309.746    0.455    0.075    0.002    0.064
1310.577    0.773    0.090    0.143    0.056
1312.251    0.775    0.089    0.140    0.056
1312.895    0.480    0.074    0.010    0.064
1313.916    0.622    0.083    0.095    0.063
1315.579    0.718    0.128    0.112    0.064
1316.035    0.470    0.120    0.016    0.066
1317.240    0.785    0.170    0.186    0.092
1318.898    0.988    0.144    0.250    0.061
1320.548    0.937    0.148    0.213    0.056
1322.174    0.782    0.116    0.200    0.054
1323.847    0.765    0.115    0.191    0.051
1325.406    0.859    0.139    0.205    0.046
1325.477    0.758    0.148    0.184    0.058
1327.118    0.760    0.147    0.202    0.065
1328.531    0.875    0.139    0.216    0.047
1328.743    0.766    0.151    0.222    0.064
1330.373    0.690    0.095    0.193    0.055
1331.557    0.797    0.082    0.229    0.047
1331.987    0.686    0.097    0.193    0.052
1333.606    0.669    0.093    0.198    0.060
1334.732    0.611    0.102    0.178    0.035
1335.217    0.626    0.099    0.067    0.061
1336.825    0.620    0.111    0.061    0.098
1337.807    0.594    0.136    0.176    0.052
1338.438    0.672    0.106    0.131    0.094
1340.000    0.752    0.115    0.138    0.070
1340.896    0.593    0.109    0.071    0.062
1341.631    0.812    0.127    0.192    0.111
1343.211    0.792    0.115    0.163    0.069
1343.972    0.886    0.107    0.168    0.041
1344.809    0.823    0.115    0.197    0.074
1346.378    0.782    0.082    0.226    0.074
1347.040    0.597    0.068    0.072    0.057
1347.959    0.775    0.076    0.204    0.068
1349.531    0.912    0.126    0.188    0.064
1350.101    0.872    0.149    0.161    0.099
1351.095    1.019    0.136    0.207    0.070
1352.663    0.939    0.156    0.203    0.096
1353.156    0.881    0.146    0.159    0.104
1354.223    0.981    0.138    0.221    0.070
1355.767    0.949    0.148    0.239    0.102
1356.203    0.810    0.134    0.161    0.057
1357.296    0.955    0.150    0.243    0.097
1358.864    0.971    0.149    0.259    0.107
1359.244    0.824    0.155    0.237    0.101
1360.410    0.788    0.156    0.253    0.097
1361.954    0.886    0.163    0.254    0.102
1362.285    0.815    0.155    0.240    0.104
1363.469    0.887    0.163    0.239    0.101
1364.996    0.908    0.148    0.250    0.078
1366.528    0.820    0.109    0.218    0.085
1368.030    0.592    0.100    0.079    0.069
1368.264    0.802    0.104    0.212    0.065
1369.545    0.842    0.102    0.196    0.069
1371.065    0.940    0.155    0.293    0.095
1371.353    0.979    0.114    0.264    0.048
1372.556    0.909    0.161    0.283    0.093
1374.032    0.921    0.152    0.287    0.088
1374.353    0.585    0.131    0.149    0.090
1375.561    0.932    0.122    0.256    0.058
1377.034    0.920    0.126    0.260    0.060
1377.347    1.149    0.140    0.299    0.048
1378.518    1.132    0.150    0.316    0.063
1379.994    1.139    0.152    0.399    0.066
1380.341    1.086    0.145    0.436    0.052
1381.483    0.812    0.079    0.245    0.091
1382.928    0.712    0.078    0.317    0.045
1383.329    0.973    0.178    0.356    0.070
1384.413    1.201    0.180    0.453    0.070
1385.863    1.198    0.180    0.462    0.070
1386.310    0.984    0.178    0.350    0.069
1387.318    0.981    0.182    0.345    0.087
1388.771    0.923    0.141    0.364    0.083
1389.278    0.921    0.136    0.356    0.062
1390.183    0.924    0.144    0.328    0.089
1391.660    1.115    0.140    0.469    0.062
1392.246    0.952    0.135    0.358    0.066
1393.088    1.316    0.196    0.529    0.080
1394.522    1.084    0.196    0.448    0.072
1395.202    1.137    0.195    0.537    0.070
1395.941    1.302    0.196    0.514    0.079
1397.359    0.818    0.100    0.309    0.074
1398.158    0.831    0.094    0.371    0.044
1398.788    0.812    0.100    0.303    0.073
1400.189    0.887    0.111    0.411    0.071
1401.107    0.863    0.093    0.444    0.048
1401.589    0.856    0.106    0.405    0.082
1403.001    1.022    0.199    0.455    0.111
1404.371    1.016    0.198    0.440    0.095
1405.787    1.248    0.195    0.561    0.087
1407.168    1.202    0.146    0.590    0.073
1408.548    1.200    0.146    0.576    0.073
1409.892    1.209    0.205    0.536    0.091
1409.919    1.215    0.207    0.545    0.097
1411.296    1.224    0.207    0.537    0.099
1412.658    1.185    0.206    0.521    0.095
1412.811    1.201    0.205    0.511    0.090
1414.019    0.986    0.084    0.465    0.055
1415.379    0.992    0.083    0.475    0.056
1416.730    1.000    0.082    0.474    0.056
1418.048    1.084    0.099    0.488    0.062
1418.623    1.078    0.096    0.488    0.054
1419.417    1.079    0.099    0.496    0.062
1420.745    1.136    0.102    0.649    0.068
1421.517    1.054    0.101    0.608    0.053
1422.078    0.971    0.108    0.556    0.060
1423.397    1.061    0.235    0.645    0.129
1424.722    1.109    0.235    0.679    0.129
1426.038    1.113    0.235    0.672    0.130
1427.294    1.175    0.231    0.700    0.124
1427.347    1.183    0.173    0.679    0.099
1428.654    1.127    0.178    0.635    0.100
1429.961    1.258    0.181    0.733    0.109
1430.171    1.213    0.179    0.702    0.106
1431.226    1.229    0.185    0.734    0.110
1432.537    1.387    0.146    0.844    0.090
1433.035    1.361    0.142    0.802    0.086
1433.814    1.364    0.150    0.820    0.090
1435.096    1.405    0.143    0.833    0.090
1435.913    1.343    0.146    0.787    0.088
1436.370    1.142    0.175    0.747    0.115
1437.650    1.105    0.178    0.732    0.114
1438.902    1.145    0.174    0.754    0.116
1440.160    1.019    0.172    0.841    0.121
1441.424    1.550    0.104    1.218    0.074
1441.612    1.640    0.095    1.190    0.068
1442.647    1.639    0.103    1.221    0.077
1443.902    1.315    0.147    1.034    0.113
1444.441    1.257    0.144    1.166    0.103
1445.142    1.310    0.150    1.041    0.114
1446.998    0.970    0.132    0.975    0.100
1447.277    1.051    0.130    0.976    0.097
1449.453    1.181    0.148    1.078    0.117
1450.107    1.298    0.144    1.327    0.114
1451.885    1.172    0.148    1.074    0.116
1452.925    1.293    0.145    1.353    0.114
1454.281    1.172    0.088    1.132    0.084
1455.738    1.130    0.087    1.242    0.079
1456.679    1.101    0.089    1.228    0.084
1458.546    1.559    0.111    1.786    0.106
1459.047    1.541    0.118    1.961    0.107
1461.348    1.585    0.113    1.968    0.105
1461.393    1.454    0.111    1.668    0.106
1463.721    1.225    0.083    1.570    0.088
1464.138    1.341    0.086    1.914    0.088
1466.034    1.315    0.093    1.913    0.090
1466.923    1.226    0.085    1.854    0.094
1468.323    1.194    0.092    1.857    0.096
1469.715    1.267    0.090    2.011    0.105
1470.590    1.235    0.097    1.986    0.107
1472.413    1.287    0.092    2.013    0.106
1472.840    1.238    0.100    2.283    0.125
1475.062    1.112    0.088    1.939    0.124
1475.253    1.311    0.093    2.270    0.124
1477.280    1.113    0.089    1.960    0.124
1477.998    1.107    0.071    2.163    0.100
1479.463    1.003    0.074    2.089    0.101
1480.750    1.093    0.068    2.270    0.101
1481.631    1.064    0.074    2.250    0.103
1483.491    1.083    0.060    2.371    0.088
1483.782    1.042    0.067    2.349    0.090
1485.906    1.060    0.067    2.353    0.091
1488.026    0.875    0.061    2.718    0.089
1488.959    0.902    0.053    2.747    0.087
1490.111    0.863    0.062    2.754    0.088
1491.685    0.878    0.053    2.759    0.087
1492.188    0.856    0.062    2.747    0.088
1494.236    0.665    0.060    2.763    0.112
1494.400    0.691    0.053    2.786    0.111
1496.282    0.649    0.061    2.779    0.112
1497.109    0.614    0.049    2.806    0.105
1498.293    0.552    0.059    2.817    0.107
1499.814    0.369    0.045    2.655    0.110
1500.290    0.308    0.057    2.649    0.112
1502.277    0.327    0.056    2.644    0.113
1502.515    0.356    0.049    2.653    0.111
1504.231    0.147    0.058    2.901    0.119
1505.141    0.205    0.048    2.908    0.117
1506.188    0.166    0.053    2.871    0.120
1507.882    0.094    0.043    2.728    0.098
1508.112    0.055    0.055    2.697    0.101
1510.014    0.060    0.053    2.693    0.103
1510.549   -0.144    0.048    2.744    0.100
1511.921   -0.181    0.058    2.716    0.103
1513.217   -0.203    0.048    2.751    0.101
1513.887   -0.270    0.056    2.657    0.106
1515.875   -0.278    0.044    2.625    0.105
1515.918   -0.301    0.050    2.585    0.108
1518.015   -0.546    0.052    2.419    0.092
1518.528   -0.539    0.048    2.485    0.088
1520.171   -0.567    0.053    2.432    0.092
1521.176   -0.567    0.048    2.479    0.088
1522.360   -0.692    0.062    2.622    0.115
1523.814   -0.664    0.055    2.631    0.113
1524.553   -0.688    0.058    2.575    0.115
1526.724   -0.827    0.058    2.267    0.071
1528.843   -0.828    0.058    2.254    0.071
1529.070   -0.790    0.050    2.258    0.069
1530.891   -0.882    0.059    2.009    0.075
1531.681   -0.865    0.056    2.046    0.071
1532.857   -0.895    0.059    1.999    0.075
1534.307   -0.923    0.054    1.947    0.073
1534.705   -0.924    0.056    1.870    0.078
1536.452   -1.090    0.061    1.905    0.079
1536.843   -1.078    0.058    1.950    0.074
1538.069   -1.098    0.062    1.910    0.081
1539.502   -1.099    0.057    1.944    0.074
1539.911   -1.122    0.062    1.905    0.081
1542.078   -1.152    0.064    1.759    0.071
1544.662   -1.236    0.075    1.774    0.071
1547.235   -1.236    0.066    1.748    0.070
1549.804   -1.385    0.099    1.592    0.090
1552.363   -1.351    0.097    1.527    0.090
1554.912   -1.353    0.097    1.572    0.091
1557.462   -1.076    0.058    1.180    0.049
1559.996   -1.089    0.058    1.175    0.049
1562.532   -1.224    0.075    1.162    0.055
1565.004   -1.231    0.074    1.154    0.056
1567.574   -1.222    0.074    1.134    0.055
1570.074   -1.088    0.078    0.837    0.047
1573.823   -1.065    0.079    0.822    0.050
1577.556   -1.214    0.079    0.860    0.044
1580.035   -1.207    0.079    0.881    0.047
1582.509   -1.198    0.079    0.851    0.045
1584.973   -0.969    0.067    0.652    0.037
1587.428   -0.948    0.066    0.660    0.036
1589.891   -1.076    0.085    0.752    0.035
1592.273   -1.061    0.080    0.637    0.040
1594.764   -1.071    0.080    0.619    0.037
1597.186   -0.853    0.072    0.478    0.031
1599.605   -0.853    0.071    0.466    0.032
1602.020   -0.847    0.071    0.471    0.029
1604.425   -0.975    0.067    0.486    0.027
1606.821   -0.943    0.072    0.577    0.026
1609.213   -0.952    0.072    0.569    0.027
1611.596   -0.813    0.050    0.463    0.020
1613.970   -0.860    0.051    0.466    0.023
1616.346   -0.844    0.051    0.484    0.021
1618.654   -0.821    0.072    0.454    0.025
1621.058   -0.832    0.072    0.461    0.025
1623.395   -0.769    0.072    0.512    0.020
1625.734   -0.849    0.074    0.418    0.021
1628.064   -0.845    0.073    0.424    0.020
1630.385   -0.870    0.073    0.397    0.021
1632.702   -0.835    0.075    0.367    0.022
1635.011   -0.782    0.073    0.400    0.019
1637.311   -0.850    0.074    0.385    0.020
1639.601   -0.518    0.073    0.330    0.020
1641.894   -0.582    0.074    0.347    0.022
1644.121   -0.568    0.076    0.355    0.022
1646.442   -0.565    0.075    0.351    0.021
1648.692   -0.849    0.071    0.297    0.024
1650.950   -0.863    0.071    0.300    0.025
1653.193   -0.859    0.074    0.297    0.024
1655.433   -0.762    0.068    0.257    0.026
1657.665   -0.737    0.061    0.196    0.024
1659.888   -0.762    0.060    0.193    0.025
1662.102   -0.768    0.060    0.194    0.026
1664.308   -0.784    0.060    0.180    0.026
1666.517   -0.780    0.061    0.178    0.027
1668.660   -0.674    0.119    0.179    0.045
1670.891   -0.701    0.119    0.160    0.046
1673.063   -0.699    0.119    0.161    0.045
1675.232   -0.630    0.120    0.140    0.046
1677.392   -0.718    0.083    0.123    0.035
1679.545   -0.723    0.083    0.107    0.035
1681.694   -0.708    0.080    0.120    0.033
1683.829   -0.685    0.079    0.138    0.033
1685.957   -0.560    0.070    0.153    0.035
1688.087   -0.555    0.070    0.150    0.035
1690.159   -0.570    0.071    0.112    0.036
1692.306   -0.503    0.072    0.175    0.035
1694.400   -0.509    0.071    0.164    0.035
1696.492   -0.566    0.073    0.134    0.037
1698.576   -0.655    0.058    0.072    0.034
1700.646   -0.631    0.057    0.062    0.035
1702.714   -0.533    0.062    0.105    0.037
1704.773   -0.534    0.062    0.095    0.038
1706.825   -0.528    0.062    0.093    0.038
1708.874   -0.600    0.061    0.071    0.036
1710.872   -0.667    0.042    0.011    0.029
1712.938   -0.663    0.041    0.001    0.029
1714.953   -0.669    0.040   -0.012    0.029
1716.965   -0.589    0.046   -0.052    0.033
1718.969   -0.629    0.048   -0.006    0.035
1724.930   -0.483    0.044   -0.035    0.029
1726.904   -0.480    0.044   -0.024    0.030
1730.827   -0.525    0.040   -0.055    0.025
1735.678   -0.512    0.041   -0.106    0.025
1739.528   -0.434    0.040   -0.114    0.026
1745.241   -0.352    0.029   -0.216    0.026
1749.001   -0.360    0.030   -0.219    0.026
1753.678   -0.372    0.027   -0.113    0.026
1759.212   -0.425    0.025   -0.101    0.020
1763.766   -0.438    0.026   -0.081    0.022
1767.385   -0.387    0.026   -0.018    0.022
1770.965   -0.373    0.026   -0.022    0.022
1774.511   -0.397    0.027   -0.015    0.022
1778.029   -0.378    0.025    0.054    0.031
1781.509   -0.509    0.022    0.023    0.022
1784.971   -0.484    0.022    0.029    0.021
1790.094   -0.320    0.026    0.048    0.024
1793.471   -0.330    0.026    0.030    0.025
1796.806   -0.324    0.026    0.032    0.024
1800.129   -0.303    0.025    0.069    0.025
1803.415   -0.285    0.026    0.088    0.024
1806.669   -0.233    0.025    0.092    0.027
1809.896   -0.370    0.026    0.102    0.025
1813.082   -0.369    0.028    0.099    0.026
1816.251   -0.362    0.027    0.080    0.028
1819.390   -0.350    0.027    0.072    0.029
1822.497   -0.309    0.028    0.113    0.027
1825.562   -0.348    0.034    0.200    0.028
1828.623   -0.341    0.034    0.198    0.029
1831.643   -0.335    0.033    0.193    0.029
1834.637   -0.336    0.034    0.193    0.029
1838.336   -0.332    0.042    0.078    0.036
1841.997   -0.326    0.039    0.073    0.034
1844.898   -0.322    0.040    0.073    0.034
1847.754   -0.134    0.030    0.018    0.024
1852.035   -0.147    0.038    0.032    0.031
1854.976   -0.148    0.040    0.031    0.034
1858.008   -0.142    0.041    0.027    0.036
1861.147   -0.134    0.042    0.028    0.038
1864.365   -0.143    0.045    0.045    0.038
1869.276   -0.150    0.030    0.101    0.031
1872.541   -0.139    0.032    0.080    0.033
1875.750   -0.065    0.033    0.070    0.037
1878.864   -0.064    0.030    0.091    0.027
1887.394    0.038    0.036    0.034    0.034
1889.902    0.036    0.038    0.060    0.040
1894.385    0.105    0.027   -0.027    0.019
