   W                 M2+_3/2
 (MeV)      Re       DRe      Im       DIm
1125.893   -0.377    0.210    0.062    0.230
1127.891   -0.160    0.202    0.003    0.228
1129.903    0.175    0.203    0.135    0.376
1131.911    0.213    0.453    0.079    0.241
1133.915    0.592    0.459   -0.001    0.280
1135.841    0.405    0.120   -0.204    0.295
1135.916    0.387    0.125   -0.179    0.301
1137.913    0.568    0.119    0.346    0.331
1139.396    1.004    0.143    0.048    0.291
1139.923    0.522    0.124    0.319    0.264
1141.905    0.238    0.340   -0.120    0.277
1142.931    0.273    0.350    0.229    0.209
1143.916    0.543    0.339    0.241    0.299
1145.916    0.245    0.342    0.096    0.229
1146.464    0.287    0.344   -0.152    0.434
1147.855    0.147    0.341   -0.063    0.209
1149.905    0.265    0.143   -0.068    0.203
1149.986    0.255    0.151   -0.050    0.245
1151.886   -0.017    0.148    0.141    0.242
1153.497    0.044    0.158   -0.006    0.162
1153.880    0.270    0.140   -0.002    0.164
1155.862    0.396    0.431    0.050    0.191
1157.006    0.114    0.161    0.168    0.186
1157.849    0.074    0.152   -0.073    0.145
1159.841    0.126    0.155    0.170    0.165
1160.504    0.228    0.161    0.066    0.167
1161.821    0.095    0.160   -0.174    0.171
1163.798    0.251    0.176    0.083    0.207
1163.991    0.304    0.165   -0.013    0.185
1165.780    0.043    0.147    0.065    0.194
1167.468    0.175    0.155    0.004    0.230
1167.758    0.220    0.141   -0.007    0.175
1169.733    0.041    0.140    0.076    0.145
1170.951   -0.196    0.228    0.036    0.182
1171.680   -0.118    0.251    0.013    0.245
1173.680   -0.250    0.203    0.199    0.143
1174.336    0.245    0.189    0.192    0.261
1175.653    0.224    0.160   -0.007    0.186
1177.631    0.024    0.162   -0.060    0.140
1177.870    0.344    0.216    0.065    0.168
1179.597    0.303    0.173    0.018    0.137
1181.306    0.452    0.206   -0.298    0.178
1181.560    0.392    0.164   -0.273    0.113
1183.528   -0.305    0.179   -0.058    0.127
1184.748    0.171    0.228   -0.264    0.198
1185.493   -0.226    0.178   -0.075    0.115
1187.454   -0.183    0.230   -0.049    0.116
1188.180    0.016    0.274   -0.039    0.204
1189.412    0.118    0.228   -0.031    0.114
1191.366   -0.084    0.221   -0.228    0.111
1191.603   -0.345    0.236    0.008    0.214
1193.334    0.005    0.218   -0.027    0.107
1195.015   -0.274    0.242    0.219    0.216
1195.235   -0.175    0.199    0.313    0.114
1197.235   -0.237    0.184   -0.117    0.121
1198.426   -0.571    0.254    0.282    0.215
1199.193   -0.304    0.197    0.382    0.101
1201.038   -0.555    0.167    0.208    0.109
1201.819   -0.376    0.235    0.138    0.200
1202.950   -0.399    0.158   -0.677    0.110
1204.852   -1.125    0.148    0.593    0.113
1205.210   -0.560    0.236   -0.003    0.196
1206.751   -0.030    0.164   -0.227    0.102
1208.600   -0.223    0.235    0.110    0.185
1208.646   -0.099    0.158    0.069    0.101
1210.539   -0.166    0.173   -0.136    0.097
1211.987   -0.147    0.236   -0.414    0.183
1212.429   -0.214    0.211   -0.286    0.097
1214.315   -0.419    0.202    0.099    0.104
1215.273   -0.570    0.389   -0.020    0.160
1216.207   -0.317    0.196    0.236    0.098
1218.049   -0.335    0.193    0.089    0.091
1218.712   -0.993    0.360    0.189    0.145
1219.951   -0.217    0.186   -0.403    0.090
1221.826   -0.685    0.153    0.281    0.094
1222.048   -0.933    0.217    0.448    0.150
1223.690   -0.386    0.151   -0.217    0.091
1225.399   -0.110    0.407   -0.039    0.170
1225.560   -0.347    0.166   -0.160    0.085
1227.419   -0.269    0.159    0.168    0.083
1228.733   -0.643    0.220    0.065    0.144
1229.275   -0.256    0.143    0.327    0.081
1231.128   -0.018    0.199   -0.075    0.224
1232.065    0.158    0.237   -0.084    0.125
1232.979    0.090    0.200   -0.188    0.203
1234.819   -0.428    0.165   -0.022    0.087
1235.389    0.169    0.242   -0.078    0.124
1236.664    0.168    0.185    0.013    0.105
1238.514    0.303    0.225   -0.522    0.104
1238.696   -1.135    0.449   -0.318    0.139
1240.301   -0.382    0.267    0.059    0.092
1242.009   -0.801    0.481   -0.290    0.160
1242.183   -0.261    0.274   -0.113    0.099
1244.002   -0.130    0.224   -0.111    0.098
1245.306   -0.487    0.403   -0.249    0.134
1245.826   -0.318    0.216   -0.147    0.097
1247.647    0.623    0.245   -0.079    0.116
1248.594    1.111    0.329    0.217    0.137
1249.466   -0.345    0.228   -0.114    0.111
1251.274   -0.519    0.318   -0.478    0.097
1251.896   -0.403    0.385   -0.318    0.147
1253.095   -0.528    0.326   -0.555    0.103
1254.883   -0.875    0.250   -0.318    0.109
1255.085   -0.551    0.283   -0.116    0.135
1256.684   -0.914    0.224   -0.283    0.103
1258.437   -0.432    0.287   -0.257    0.141
1258.482   -0.587    0.233   -0.438    0.097
1260.285   -0.309    0.228   -0.512    0.100
1261.691   -0.015    0.222   -0.160    0.134
1262.026   -0.178    0.199   -0.374    0.099
1263.861    0.451    0.308   -0.314    0.174
1264.944    0.227    0.219   -0.176    0.129
1265.649   -0.067    0.288   -0.385    0.101
1267.412   -0.660    0.280   -0.508    0.103
1268.189   -0.244    0.308   -0.296    0.132
1269.187   -0.478    0.221   -0.428    0.104
1270.960   -0.483    0.221   -0.309    0.102
1271.433    0.557    0.212    0.356    0.117
1272.731    0.778    0.187    0.437    0.118
1274.477    0.020    0.229   -0.575    0.106
1274.661    0.687    0.218   -0.085    0.125
1276.250    0.083    0.216   -0.296    0.109
1278.006    0.458    0.196    0.092    0.135
1279.752    0.857    0.181    0.122    0.164
1281.108    0.823    0.239    0.135    0.128
1281.510    0.211    0.250   -0.152    0.112
1283.215    0.390    0.306   -0.148    0.223
1284.319    1.055    0.187    0.346    0.129
1284.991    0.221    0.214   -0.210    0.120
1286.720   -0.014    0.241   -0.285    0.148
1287.522    0.265    0.225   -0.133    0.119
1288.447   -0.104    0.201   -0.296    0.121
1290.179    0.054    0.196   -0.203    0.119
1290.724   -0.422    0.213   -0.486    0.115
1291.902    0.531    0.185    0.044    0.116
1293.614    0.444    0.196    0.034    0.118
1293.846    0.220    0.182    0.075    0.111
1295.332    0.061    0.178   -0.126    0.117
1297.041    0.134    0.193   -0.166    0.128
1297.098    0.065    0.181   -0.180    0.113
1298.754   -0.065    0.198   -0.261    0.130
1300.263    0.026    0.185   -0.165    0.116
1300.450    0.003    0.194   -0.208    0.127
1302.152    0.007    0.195   -0.198    0.132
1303.434   -0.231    0.261   -0.467    0.111
1303.816   -0.065    0.266   -0.294    0.127
1305.542   -0.269    0.259   -0.335    0.120
1306.590   -0.297    0.257   -0.618    0.113
1307.222   -0.199    0.254   -0.385    0.124
1308.901   -0.149    0.251   -0.289    0.116
1309.746   -0.335    0.153   -0.609    0.112
1310.577    0.134    0.169   -0.157    0.135
1312.251    0.080    0.169   -0.195    0.136
1312.895   -0.302    0.151   -0.562    0.112
1313.916   -0.174    0.155   -0.337    0.127
1315.579   -0.108    0.208   -0.266    0.123
1316.035   -0.131    0.208   -0.530    0.114
1317.240    0.329    0.364   -0.102    0.360
1318.898    0.403    0.271   -0.128    0.177
1320.548    0.409    0.270   -0.105    0.166
1322.174    0.307    0.187   -0.051    0.175
1323.847    0.307    0.188   -0.105    0.171
1325.406    0.257    0.224   -0.047    0.127
1325.477    0.325    0.240   -0.059    0.172
1327.118    0.451    0.234    0.047    0.194
1328.531    0.298    0.224    0.002    0.132
1328.743    0.482    0.239    0.088    0.205
1330.373    0.440    0.191    0.045    0.189
1331.557    0.488    0.170    0.095    0.145
1331.987    0.505    0.183    0.052    0.184
1333.606    0.574    0.179    0.096    0.198
1334.732    0.473    0.149    0.102    0.122
1335.217    0.292    0.165   -0.150    0.160
1336.825    0.228    0.253   -0.133    0.331
1337.807    0.493    0.212    0.147    0.305
1338.438    0.177    0.286    0.038    0.325
1340.000   -0.045    0.179   -0.014    0.156
1340.896   -0.162    0.167   -0.433    0.115
1341.631    0.034    0.253    0.060    0.235
1343.211    0.101    0.187   -0.027    0.165
1343.972    0.251    0.165    0.084    0.122
1344.809    0.092    0.182    0.064    0.162
1346.378    0.259    0.168    0.128    0.159
1347.040    0.157    0.150   -0.250    0.122
1347.959    0.323    0.162    0.056    0.151
1349.531    0.136    0.192   -0.090    0.144
1350.101   -0.190    0.216   -0.276    0.181
1351.095   -0.052    0.168   -0.014    0.150
1352.663   -0.072    0.234   -0.063    0.225
1353.156   -0.175    0.220   -0.283    0.195
1354.223   -0.041    0.167    0.004    0.144
1355.767    0.049    0.261   -0.043    0.214
1356.203    0.040    0.212   -0.274    0.116
1357.296    0.074    0.271   -0.033    0.217
1358.864    0.116    0.268    0.065    0.205
1359.244   -0.168    0.243   -0.345    0.135
1360.410   -0.166    0.237   -0.205    0.160
1361.954   -0.054    0.241   -0.059    0.163
1362.285   -0.118    0.224   -0.320    0.123
1363.469   -0.068    0.232   -0.099    0.153
1364.996   -0.017    0.199    0.048    0.122
1366.528    0.701    0.291   -0.002    0.337
1368.030    0.211    0.200   -0.370    0.166
1368.264    0.674    0.227   -0.048    0.243
1369.545    0.719    0.280    0.059    0.302
1371.065    0.557    0.287   -0.037    0.353
1371.353    0.582    0.205   -0.021    0.149
1372.556    0.557    0.287   -0.045    0.355
1374.032    0.601    0.281   -0.036    0.353
1374.353    0.111    0.276   -0.568    0.256
1375.561    0.693    0.281    0.153    0.321
1377.034    0.671    0.271    0.069    0.318
1377.347    0.490    0.199    0.277    0.142
1378.518    0.368    0.265    0.060    0.314
1379.994    0.056    0.243   -0.167    0.203
1380.341    0.231    0.196   -0.099    0.120
1381.483   -0.047    0.161   -0.459    0.115
1382.928    0.808    0.202   -0.150    0.154
1383.329   -0.049    0.264   -0.527    0.087
1384.413    0.315    0.279   -0.209    0.186
1385.863    0.307    0.280   -0.166    0.185
1386.310   -0.033    0.263   -0.563    0.087
1387.318    0.039    0.277   -0.451    0.134
1388.771    0.033    0.218   -0.496    0.132
1389.278   -0.028    0.201   -0.541    0.080
1390.183    0.041    0.228   -0.346    0.151
1391.660    0.328    0.223   -0.230    0.176
1392.246   -0.054    0.201   -0.525    0.074
1393.088    0.135    0.296   -0.176    0.182
1394.522    0.529    0.304   -0.192    0.131
1395.202    0.200    0.276   -0.261    0.105
1395.941    0.191    0.297   -0.252    0.200
1397.359    0.282    0.238   -0.163    0.176
1398.158    0.499    0.170   -0.012    0.097
1398.788    0.239    0.224   -0.134    0.163
1400.189    0.394    0.221   -0.232    0.193
1401.107    0.347    0.171   -0.222    0.100
1401.589    0.337    0.233   -0.233    0.183
1403.001    0.242    0.334   -0.258    0.177
1404.371    0.294    0.332   -0.292    0.167
1405.787    0.433    0.316   -0.051    0.239
1407.168    0.415    0.361   -0.125    0.202
1408.548    0.409    0.361   -0.096    0.207
1409.892    0.458    0.297   -0.195    0.132
1409.919    0.354    0.319   -0.001    0.221
1411.296    0.384    0.317   -0.041    0.225
1412.658    0.387    0.315   -0.164    0.212
1412.811    0.464    0.297   -0.317    0.133
1414.019    0.658    0.198   -0.149    0.198
1415.379    0.678    0.202   -0.181    0.247
1416.730    0.669    0.200   -0.140    0.239
1418.048    0.694    0.204   -0.074    0.234
1418.623    0.750    0.172   -0.217    0.124
1419.417    0.704    0.203   -0.103    0.239
1420.745    0.749    0.197    0.017    0.260
1421.517    0.672    0.169    0.010    0.089
1422.078    0.702    0.186   -0.303    0.147
1423.397    0.613    0.383   -0.344    0.162
1424.722    0.556    0.380   -0.428    0.163
1426.038    0.554    0.381   -0.426    0.169
1427.294    0.575    0.368   -0.085    0.089
1427.347    0.615    0.375   -0.299    0.133
1428.654    0.655    0.377   -0.319    0.157
1429.961    0.616    0.290   -0.194    0.135
1430.171    0.653    0.279   -0.270    0.093
1431.226    0.638    0.294   -0.269    0.154
1432.537    0.148    0.189   -0.302    0.154
1433.035    0.161    0.166   -0.280    0.100
1433.814    0.141    0.187   -0.296    0.154
1435.096    0.184    0.185   -0.217    0.135
1435.913    0.183    0.174   -0.298    0.120
1436.370    0.553    0.371   -0.290    0.135
1437.650    0.581    0.369   -0.325    0.129
1438.902    0.553    0.373   -0.295    0.140
1440.160    0.574    0.369   -0.037    0.194
1441.424    0.123    0.089   -0.108    0.136
1441.612    0.181    0.061   -0.243    0.089
1442.647    0.170    0.093   -0.329    0.143
1443.902    0.472    0.218   -0.357    0.142
1444.441    0.616    0.206    0.074    0.085
1445.142    0.466    0.219   -0.338    0.142
1446.998    0.876    0.291   -0.122    0.115
1447.277    0.857    0.288    0.122    0.074
1449.453    0.631    0.225   -0.143    0.121
1450.107   -0.018    0.215   -0.565    0.068
1451.885    0.638    0.225   -0.184    0.114
1452.925   -0.059    0.215   -0.562    0.068
1454.281    0.649    0.163   -0.355    0.116
1455.738    0.718    0.157    0.123    0.067
1456.679    0.725    0.166    0.021    0.097
1458.546   -0.203    0.045   -0.439    0.061
1459.047   -0.217    0.047   -0.380    0.070
1461.348   -0.254    0.038   -0.352    0.052
1461.393    0.355    0.062   -0.073    0.081
1463.721    0.433    0.061   -0.079    0.087
1464.138   -0.269    0.039   -0.321    0.052
1466.034   -0.261    0.049   -0.360    0.064
1466.923   -0.156    0.187   -0.290    0.050
1468.323   -0.134    0.189   -0.333    0.060
1469.715   -0.204    0.158   -0.262    0.049
1470.590   -0.162    0.161   -0.340    0.061
1472.413   -0.188    0.158   -0.270    0.049
1472.840   -0.100    0.181   -0.310    0.059
1475.062    0.609    0.183   -0.043    0.090
1475.253   -0.114    0.179   -0.308    0.055
1477.280    0.612    0.183   -0.056    0.092
1477.998   -0.212    0.143   -0.275    0.051
1479.463   -0.084    0.147   -0.427    0.055
1480.750   -0.160    0.038   -0.285    0.040
1481.631   -0.123    0.052   -0.358    0.054
1483.491   -0.164    0.039   -0.278    0.040
1483.782   -0.122    0.058   -0.366    0.056
1485.906   -0.138    0.057   -0.383    0.056
1488.026   -0.190    0.051   -0.321    0.056
1488.959   -0.206    0.034   -0.181    0.038
1490.111   -0.187    0.047   -0.269    0.052
1491.685   -0.215    0.036   -0.154    0.038
1492.188   -0.179    0.049   -0.265    0.052
1494.236   -0.213    0.052   -0.306    0.058
1494.400   -0.238    0.037   -0.170    0.039
1496.282   -0.213    0.052   -0.299    0.059
1497.109   -0.100    0.040   -0.193    0.036
1498.293   -0.051    0.056   -0.259    0.052
1499.814    0.093    0.118   -0.189    0.036
1500.290    0.145    0.129   -0.252    0.060
1502.277    0.155    0.130   -0.258    0.058
1502.515    0.129    0.121   -0.182    0.039
1504.231    0.058    0.142   -0.248    0.072
1505.141   -0.003    0.134   -0.161    0.039
1506.188    0.081    0.151   -0.294    0.065
1507.882   -0.013    0.118   -0.164    0.038
1508.112    0.058    0.133   -0.291    0.062
1510.014    0.075    0.138   -0.303    0.066
1510.549   -0.072    0.043   -0.129    0.036
1511.921   -0.029    0.071   -0.234    0.061
1513.217   -0.074    0.038   -0.103    0.035
1513.887    0.181    0.112   -0.284    0.067
1515.875    0.180    0.110   -0.059    0.043
1515.918    0.280    0.124   -0.196    0.067
1518.015    0.270    0.125   -0.153    0.077
1518.528    0.172    0.106   -0.033    0.044
1520.171    0.251    0.120   -0.175    0.072
1521.176    0.139    0.105   -0.020    0.043
1522.360    0.197    0.140   -0.161    0.060
1523.814    0.144    0.135   -0.018    0.046
1524.553    0.245    0.146   -0.152    0.070
1526.724    0.156    0.089   -0.129    0.059
1528.843    0.169    0.091   -0.116    0.058
1529.070    0.113    0.084    0.001    0.044
1530.891    0.175    0.101   -0.118    0.074
1531.681    0.100    0.086    0.023    0.049
1532.857    0.197    0.099   -0.119    0.072
1534.307    0.108    0.090    0.020    0.050
1534.705    0.277    0.107   -0.055    0.094
1536.452    0.298    0.105   -0.073    0.086
1536.843    0.198    0.092    0.016    0.059
1538.069    0.301    0.110   -0.107    0.084
1539.502    0.174    0.091    0.019    0.056
1539.911    0.282    0.109   -0.063    0.082
1542.078    0.218    0.104    0.083    0.070
1544.662    0.149    0.114    0.016    0.069
1547.235    0.113    0.102    0.000    0.063
1549.804    0.231    0.120   -0.121    0.083
1552.363    0.322    0.120   -0.150    0.087
1554.912    0.252    0.116   -0.118    0.083
1557.462    0.028    0.069    0.019    0.062
1559.996    0.014    0.066    0.040    0.060
1562.532   -0.029    0.052    0.119    0.048
1565.004   -0.051    0.051    0.106    0.047
1567.574   -0.063    0.049    0.140    0.047
1570.074   -0.023    0.065    0.027    0.104
1573.823   -0.031    0.069    0.122    0.108
1577.556   -0.076    0.048    0.188    0.049
1580.035   -0.099    0.046    0.224    0.049
1582.509   -0.115    0.046    0.203    0.050
1584.973   -0.153    0.045    0.205    0.050
1587.428   -0.140    0.042    0.233    0.048
1589.891   -0.044    0.042    0.076    0.045
1592.273   -0.146    0.042    0.186    0.053
1594.764   -0.099    0.042    0.205    0.048
1597.186   -0.117    0.043    0.234    0.049
1599.605   -0.146    0.043    0.225    0.049
1602.020   -0.161    0.040    0.236    0.047
1604.425   -0.158    0.037    0.234    0.046
1606.821   -0.021    0.045    0.130    0.050
1609.213   -0.037    0.046    0.145    0.051
1611.596    0.024    0.043    0.158    0.061
1613.970   -0.016    0.048    0.157    0.060
1616.346    0.006    0.046    0.121    0.058
1618.654   -0.023    0.050    0.197    0.063
1621.058   -0.030    0.050    0.184    0.063
1623.395   -0.011    0.047    0.045    0.056
1625.734   -0.063    0.045    0.098    0.067
1628.064   -0.055    0.045    0.094    0.068
1630.385   -0.096    0.049    0.181    0.070
1632.702   -0.060    0.052    0.286    0.078
1635.011    0.010    0.046    0.223    0.081
1637.311   -0.080    0.052    0.358    0.080
1639.601   -0.030    0.051    0.113    0.065
1641.894   -0.005    0.058   -0.021    0.065
1644.121    0.052    0.069   -0.090    0.070
1646.442    0.019    0.066   -0.070    0.069
1648.692   -0.090    0.063    0.209    0.058
1650.950   -0.099    0.067    0.255    0.058
1653.193   -0.134    0.076    0.218    0.058
1655.433   -0.023    0.070    0.087    0.058
1657.665    0.060    0.098    0.106    0.068
1659.888   -0.032    0.096    0.153    0.061
1662.102   -0.077    0.102    0.172    0.062
1664.308   -0.035    0.102    0.172    0.061
1666.517   -0.176    0.073    0.196    0.054
1668.660   -0.103    0.079    0.147    0.063
1670.891   -0.168    0.079    0.165    0.065
1673.063   -0.185    0.080    0.167    0.065
1675.232    0.079    0.099    0.010    0.060
1677.392   -0.089    0.097    0.034    0.059
1679.545   -0.092    0.096    0.024    0.060
1681.694   -0.058    0.070   -0.008    0.046
1683.829   -0.195    0.059   -0.013    0.048
1685.957   -0.114    0.060   -0.037    0.045
1688.087   -0.104    0.059   -0.047    0.045
1690.159   -0.085    0.066   -0.039    0.043
1692.306   -0.080    0.064   -0.179    0.044
1694.400   -0.078    0.063   -0.192    0.044
1696.492   -0.248    0.079   -0.206    0.056
1698.576   -0.145    0.082   -0.255    0.052
1700.646   -0.119    0.068   -0.228    0.053
1702.714   -0.256    0.069   -0.078    0.056
1704.773   -0.248    0.067   -0.085    0.057
1706.825   -0.254    0.067   -0.111    0.054
1708.874   -0.146    0.072    0.034    0.056
1710.872   -0.104    0.066    0.042    0.053
1712.938   -0.116    0.063    0.033    0.051
1714.953   -0.096    0.063    0.018    0.048
1716.965   -0.273    0.066   -0.081    0.066
1718.969   -0.300    0.080   -0.086    0.068
1724.930   -0.143    0.065   -0.110    0.052
1726.904   -0.141    0.064   -0.103    0.050
1730.827   -0.210    0.061   -0.096    0.060
1735.678   -0.179    0.059   -0.147    0.061
1739.528   -0.074    0.062   -0.235    0.054
1745.241    0.298    0.071   -0.118    0.060
1749.001    0.267    0.070   -0.142    0.066
1753.678    0.538    0.067   -0.196    0.075
1759.212    0.615    0.050   -0.060    0.067
1763.766    0.581    0.054   -0.087    0.067
1767.385    0.673    0.052   -0.109    0.066
1770.965    0.661    0.054   -0.144    0.065
1774.511    0.644    0.060   -0.132    0.067
1778.029    0.454    0.053   -0.148    0.070
1781.509    0.538    0.058   -0.002    0.070
1784.971    0.508    0.053   -0.052    0.062
1790.094    0.503    0.048   -0.079    0.063
1793.471    0.518    0.047   -0.036    0.062
1796.806    0.450    0.045   -0.024    0.065
1800.129    0.538    0.069   -0.070    0.068
1803.415    0.520    0.069   -0.087    0.068
1806.669    0.385    0.041    0.008    0.063
1809.896    0.396    0.048   -0.017    0.065
1813.082    0.371    0.055   -0.023    0.071
1816.251    0.455    0.053   -0.032    0.068
1819.390    0.439    0.053   -0.018    0.073
1822.497    0.505    0.048   -0.040    0.066
1825.562    0.592    0.067   -0.269    0.090
1828.623    0.590    0.067   -0.239    0.093
1831.643    0.587    0.066   -0.235    0.092
1834.637    0.583    0.068   -0.231    0.091
1838.336    0.571    0.086   -0.010    0.097
1841.997    0.555    0.079   -0.001    0.089
1844.898    0.551    0.080   -0.015    0.085
1847.754    0.509    0.062    0.013    0.066
1852.035    0.459    0.075    0.067    0.071
1854.976    0.466    0.078    0.060    0.072
1858.008    0.477    0.080    0.064    0.074
1861.147    0.474    0.084    0.071    0.076
1864.365    0.458    0.087    0.053    0.075
1869.276    0.546    0.047   -0.031    0.067
1872.541    0.502    0.066    0.002    0.078
1875.750    0.551    0.064   -0.004    0.082
1878.864    0.539    0.062   -0.007    0.067
1887.394    0.551    0.090    0.034    0.081
1889.902    0.600    0.098   -0.029    0.095
1894.385    0.333    0.073    0.125    0.053
