   W                 M2-(pi0_p)
 (MeV)      Re       DRe      Im       DIm
1075.227    0.013    0.113    0.044    0.099
1077.319    0.106    0.072    0.093    0.153
1079.346    0.029    0.061   -0.075    0.092
1081.387    0.042    0.067    0.138    0.125
1083.424    0.070    0.065    0.007    0.150
1085.449   -0.030    0.053    0.011    0.122
1087.487   -0.105    0.060    0.096    0.092
1089.521    0.140    0.061    0.034    0.132
1091.535   -0.062    0.060   -0.059    0.126
1093.579   -0.145    0.067    0.008    0.111
1095.610   -0.103    0.054   -0.032    0.138
1097.646    0.189    0.052    0.122    0.126
1099.619   -0.100    0.052   -0.225    0.108
1101.699   -0.070    0.057   -0.251    0.085
1103.707    0.182    0.060    0.306    0.097
1105.729   -0.225    0.058    0.005    0.084
1107.755   -0.072    0.048    0.086    0.145
1109.760    0.100    0.051    0.003    0.145
1111.796   -0.083    0.047    0.113    0.136
1113.795   -0.069    0.056    0.016    0.125
1115.823   -0.136    0.067    0.009    0.112
1117.839    0.013    0.094    0.803    0.144
1119.860    0.037    0.064    0.239    0.197
1121.878   -0.038    0.079    0.177    0.187
1123.833   -0.179    0.098    0.692    0.169
1125.893   -0.114    0.127    0.081    0.209
1127.891   -0.204    0.209    0.169    0.167
1129.903    0.050    0.168   -0.119    0.231
1131.911   -0.244    0.164    0.269    0.324
1133.915   -0.226    0.107    0.181    0.176
1135.841   -0.160    0.172   -0.076    0.191
1135.916   -0.182    0.193   -0.051    0.188
1137.913   -0.006    0.202   -0.146    0.273
1139.396    0.048    0.149    0.573    0.187
1139.923   -0.138    0.158    0.483    0.356
1141.905   -0.323    0.247    0.007    0.228
1142.931    0.017    0.129   -0.142    0.177
1143.916    0.767    0.168    0.037    0.280
1145.916   -0.069    0.173   -0.256    0.305
1146.464   -0.036    0.177   -0.334    0.263
1147.855   -0.282    0.205   -0.009    0.196
1149.905   -0.055    0.097    0.339    0.256
1149.986   -0.080    0.106    0.356    0.288
1151.886    0.106    0.098   -0.292    0.227
1153.497   -0.068    0.113   -0.013    0.194
1153.880    0.108    0.090   -0.113    0.217
1155.862   -0.000    0.124   -0.053    0.229
1157.006    0.001    0.118   -0.100    0.212
1157.849   -0.013    0.103    0.144    0.185
1159.841   -0.006    0.103   -0.022    0.182
1160.504    0.003    0.113   -0.050    0.189
1161.821    0.142    0.089    0.066    0.171
1163.798    0.131    0.112    0.276    0.251
1163.991    0.163    0.105    0.299    0.236
1165.780    0.323    0.114   -0.182    0.247
1167.468    0.090    0.147    0.072    0.275
1167.758    0.134    0.117    0.029    0.219
1169.733    0.319    0.130   -0.487    0.199
1170.951   -0.047    0.137    0.154    0.212
1171.680    0.527    0.171   -0.657    0.290
1173.680   -0.391    0.139    0.548    0.209
1174.336    0.070    0.136   -0.032    0.168
1175.653    0.050    0.095   -0.085    0.109
1177.631    0.458    0.122    0.036    0.197
1177.870    0.310    0.161   -0.078    0.175
1179.597    0.610    0.140   -0.484    0.155
1181.306    0.707    0.203   -0.304    0.201
1181.560    0.586    0.156   -0.186    0.151
1183.528    0.223    0.097    0.154    0.121
1184.748    0.705    0.196   -0.394    0.199
1185.493    0.173    0.083    0.218    0.098
1187.454    0.171    0.088    0.145    0.105
1188.180    0.574    0.180   -0.266    0.191
1189.412    0.345    0.144   -0.114    0.128
1191.366    0.165    0.107    0.199    0.110
1191.603    0.593    0.167   -0.315    0.172
1193.334    0.034    0.107    0.117    0.108
1195.015    0.227    0.184   -0.177    0.162
1195.235    0.101    0.140   -0.112    0.135
1197.235    0.234    0.130    0.075    0.116
1198.426   -0.587    0.182    0.368    0.175
1199.193   -0.130    0.143    0.108    0.135
1201.038    0.191    0.149    0.104    0.099
1201.819   -0.660    0.202    0.408    0.169
1202.950    0.217    0.149    0.316    0.083
1204.852   -1.149    0.171    0.449    0.131
1205.210   -0.708    0.213    0.481    0.156
1206.751    0.001    0.146    0.278    0.104
1208.600    0.292    0.218   -0.182    0.137
1208.646    0.005    0.136    0.006    0.092
1210.539    0.092    0.151    0.194    0.098
1211.987    0.789    0.199   -0.102    0.130
1212.429    0.439    0.194    0.274    0.088
1214.315    0.072    0.147    0.002    0.091
1215.273    0.380    0.241    0.074    0.122
1216.207    0.035    0.132   -0.141    0.080
1218.049   -0.109    0.146    0.083    0.092
1218.712   -0.643    0.265    0.132    0.138
1219.951   -0.090    0.158    0.461    0.091
1221.826    0.010    0.167   -0.284    0.088
1222.048    0.253    0.198   -0.518    0.103
1223.690    0.042    0.151    0.219    0.093
1225.399   -0.375    0.214   -0.071    0.094
1225.560   -0.022    0.192    0.282    0.098
1227.419    0.118    0.186   -0.075    0.090
1228.733    0.569    0.187   -0.403    0.101
1229.275    0.273    0.182   -0.297    0.089
1231.128   -0.089    0.263    0.161    0.245
1232.065    0.561    0.292    0.213    0.141
1232.979   -0.277    0.254    0.289    0.223
1234.819    0.386    0.208   -0.063    0.092
1235.389    0.302    0.332    0.276    0.131
1236.664   -0.151    0.189    0.010    0.102
1238.514   -0.628    0.207    0.337    0.100
1238.696   -0.685    0.313   -0.051    0.175
1240.301    0.196    0.204   -0.191    0.096
1242.009   -0.373    0.320   -0.284    0.145
1242.183    0.158    0.215   -0.017    0.107
1244.002   -0.072    0.282    0.131    0.120
1245.306   -0.637    0.320    0.064    0.194
1245.826    0.149    0.277   -0.055    0.135
1247.647    0.382    0.208    0.297    0.112
1248.594    0.810    0.301    0.766    0.197
1249.466    0.074    0.265    0.003    0.136
1251.274   -0.394    0.221    0.178    0.121
1251.896   -0.121    0.281    0.345    0.170
1253.095   -0.411    0.207    0.113    0.128
1254.883   -0.300    0.220   -0.026    0.141
1255.085    0.296    0.258    0.230    0.163
1256.684   -0.105    0.217   -0.028    0.134
1258.437   -0.074    0.282    0.357    0.172
1258.482   -0.266    0.219    0.246    0.124
1260.285   -0.432    0.181    0.208    0.120
1261.691    0.214    0.224    0.318    0.139
1262.026   -0.168    0.179    0.034    0.119
1263.861   -0.288    0.193   -0.105    0.182
1264.944    0.051    0.298    0.321    0.165
1265.649   -0.191    0.168   -0.125    0.122
1267.412   -0.280    0.209   -0.192    0.146
1268.189   -0.103    0.235    0.183    0.213
1269.187   -0.079    0.219   -0.222    0.147
1270.960   -0.186    0.198   -0.410    0.141
1271.433    0.299    0.256    0.425    0.202
1272.731    0.543    0.199    0.570    0.190
1274.477   -0.446    0.192   -0.102    0.143
1274.661   -0.115    0.245    0.440    0.181
1276.250   -0.245    0.190   -0.101    0.134
1278.006   -0.019    0.206   -0.103    0.149
1279.752    0.198    0.178    0.412    0.216
1281.108   -0.020    0.212    0.341    0.159
1281.510   -0.035    0.183   -0.167    0.130
1283.215   -0.356    0.224   -0.012    0.171
1284.319    0.228    0.208    0.416    0.162
1284.991    0.329    0.201    0.200    0.151
1286.720    0.177    0.249   -0.014    0.200
1287.522    0.591    0.164    0.129    0.163
1288.447    0.359    0.187   -0.041    0.150
1290.179    0.443    0.186    0.140    0.154
1290.724    0.621    0.170   -0.300    0.172
1291.902    0.058    0.135    0.033    0.168
1293.614    0.040    0.137    0.041    0.174
1293.846    0.645    0.205   -0.104    0.187
1295.332    0.449    0.218   -0.084    0.192
1297.041    0.549    0.173    0.144    0.150
1297.098    0.906    0.123    0.212    0.126
1298.754    0.526    0.175    0.100    0.155
1300.263    0.876    0.119    0.243    0.120
1300.450    0.505    0.176    0.131    0.155
1302.152    0.617    0.155    0.131    0.153
1303.434    0.589    0.142    0.098    0.108
1303.816   -0.237    0.179   -0.429    0.147
1305.542   -0.048    0.182   -0.404    0.156
1306.590   -0.674    0.152   -0.749    0.175
1307.222    0.144    0.158   -0.097    0.141
1308.901   -0.008    0.171   -0.250    0.155
1309.746   -0.734    0.171   -0.229    0.190
1310.577    0.220    0.227    0.194    0.166
1312.251    0.225    0.223    0.186    0.168
1312.895   -0.660    0.166   -0.206    0.190
1313.916   -0.235    0.201    0.049    0.188
1315.579    0.103    0.206    0.101    0.187
1316.035   -0.643    0.162   -0.187    0.194
1317.240    0.302    0.395    0.321    0.275
1318.898    0.496    0.205    0.443    0.176
1320.548    0.343    0.228    0.333    0.161
1322.174    0.497    0.219    0.361    0.157
1323.847    0.446    0.212    0.334    0.150
1325.406    0.723    0.140    0.359    0.128
1325.477    0.420    0.210    0.295    0.164
1327.118    0.428    0.200    0.349    0.187
1328.531    0.772    0.146    0.392    0.131
1328.743    0.445    0.226    0.409    0.185
1330.373    0.463    0.220    0.348    0.164
1331.557    0.784    0.168    0.457    0.140
1331.987    0.451    0.230    0.349    0.154
1333.606    0.400    0.213    0.363    0.177
1334.732    0.183    0.180    0.276    0.098
1335.217    0.227    0.160   -0.057    0.178
1336.825    0.211    0.223   -0.075    0.292
1337.807    0.132    0.322    0.270    0.150
1338.438    0.366    0.198    0.135    0.279
1340.000    0.194    0.168    0.071    0.205
1340.896   -0.285    0.129   -0.131    0.178
1341.631    0.372    0.233    0.232    0.329
1343.211    0.312    0.170    0.144    0.202
1343.972    0.595    0.118    0.160    0.112
1344.809    0.407    0.168    0.247    0.216
1346.378    0.406    0.187    0.322    0.221
1347.040   -0.148    0.126   -0.139    0.167
1347.959    0.385    0.160    0.257    0.201
1349.531    0.103    0.185    0.081    0.183
1350.101   -0.075    0.243   -0.021    0.289
1351.095    0.368    0.165    0.116    0.199
1352.663    0.126    0.279    0.105    0.279
1353.156   -0.046    0.226   -0.027    0.304
1354.223    0.253    0.179    0.157    0.197
1355.767    0.251    0.232    0.174    0.296
1356.203   -0.166    0.137   -0.058    0.153
1357.296    0.269    0.245    0.188    0.281
1358.864    0.316    0.241    0.234    0.311
1359.244   -0.125    0.272    0.169    0.294
1360.410   -0.232    0.277    0.216    0.279
1361.954    0.151    0.311    0.201    0.293
1362.285   -0.061    0.269    0.161    0.301
1363.469    0.154    0.308    0.156    0.290
1364.996    0.217    0.232    0.189    0.219
1366.528    0.748    0.238    0.262    0.250
1368.030    0.066    0.200   -0.155    0.202
1368.264    0.695    0.219    0.243    0.188
1369.545    0.814    0.208    0.196    0.202
1371.065    0.742    0.332    0.336    0.271
1371.353    0.857    0.108    0.250    0.117
1372.556    0.648    0.358    0.306    0.267
1374.032    0.683    0.319    0.317    0.251
1374.353   -0.324    0.220   -0.095    0.255
1375.561    0.718    0.168    0.225    0.152
1377.034    0.681    0.194    0.238    0.160
1377.347    0.787    0.101    0.183    0.094
1378.518    0.737    0.188    0.233    0.154
1379.994    0.756    0.203    0.484    0.163
1380.341    0.598    0.146    0.595    0.109
1381.483    0.506    0.159    0.183    0.269
1382.928    0.205    0.156    0.399    0.127
1383.329    0.141    0.121    0.260    0.144
1384.413    0.824    0.143    0.551    0.144
1385.863    0.816    0.143    0.579    0.147
1386.310    0.173    0.116    0.242    0.141
1387.318    0.164    0.164    0.226    0.212
1388.771    0.167    0.160    0.249    0.215
1389.278    0.161    0.115    0.224    0.138
1390.183    0.170    0.187    0.140    0.237
1391.660    0.742    0.154    0.564    0.138
1392.246    0.254    0.112    0.232    0.153
1393.088    0.791    0.137    0.549    0.151
1394.522    0.094    0.142    0.306    0.108
1395.202    0.253    0.127    0.573    0.096
1395.941    0.749    0.134    0.506    0.145
1397.359    0.265    0.155    0.139    0.203
1398.158    0.306    0.114    0.323    0.094
1398.788    0.247    0.154    0.121    0.197
1400.189    0.472    0.211    0.444    0.190
1401.107    0.401    0.109    0.544    0.110
1401.589    0.381    0.189    0.426    0.226
1403.001    0.357    0.174    0.317    0.249
1404.371    0.339    0.167    0.271    0.180
1405.787    1.035    0.129    0.633    0.137
1407.168    1.018    0.110    0.710    0.135
1408.548    1.011    0.115    0.667    0.134
1409.892    1.028    0.060    0.527    0.097
1409.919    1.048    0.114    0.554    0.144
1411.296    1.075    0.106    0.528    0.151
1412.658    0.958    0.101    0.481    0.126
1412.811    1.004    0.059    0.451    0.093
1414.019    0.948    0.102    0.484    0.127
1415.379    0.966    0.094    0.512    0.131
1416.730    0.989    0.092    0.509    0.130
1418.048    1.040    0.093    0.430    0.131
1418.623    1.022    0.054    0.429    0.090
1419.417    1.025    0.091    0.453    0.130
1420.745    1.196    0.115    0.911    0.155
1421.517    0.950    0.106    0.789    0.085
1422.078    0.701    0.158    0.634    0.121
1423.397    0.606    0.164    0.572    0.135
1424.722    0.749    0.168    0.675    0.140
1426.038    0.762    0.173    0.654    0.143
1427.294    0.949    0.101    0.737    0.083
1427.347    1.105    0.132    0.705    0.118
1428.654    0.936    0.185    0.572    0.125
1429.961    1.116    0.133    0.654    0.120
1430.171    0.982    0.108    0.561    0.085
1431.226    1.031    0.173    0.658    0.127
1432.537    1.053    0.159    0.695    0.126
1433.035    0.975    0.124    0.569    0.090
1433.814    0.984    0.194    0.625    0.125
1435.096    1.108    0.138    0.664    0.120
1435.913    0.923    0.159    0.525    0.108
1436.370    0.991    0.179    0.646    0.120
1437.650    0.880    0.204    0.602    0.112
1438.902    1.000    0.166    0.668    0.128
1440.160    0.622    0.150    0.928    0.165
1441.424    0.676    0.165    0.861    0.124
1441.612    0.947    0.108    0.779    0.088
1442.647    0.942    0.160    0.871    0.139
1443.902    0.596    0.149    0.661    0.155
1444.441    0.420    0.127    1.056    0.069
1445.142    0.581    0.175    0.681    0.163
1446.998    0.301    0.136    0.953    0.098
1447.277    0.543    0.116    0.958    0.068
1449.453    0.416    0.136    0.777    0.113
1450.107    0.765    0.089    1.524    0.081
1451.885    0.389    0.137    0.765    0.104
1452.925    0.752    0.106    1.600    0.092
1454.281    0.625    0.107    0.661    0.104
1455.738    0.500    0.099    0.992    0.066
1456.679    0.412    0.114    0.949    0.102
1458.546    0.754    0.093    1.565    0.074
1459.047    0.699    0.153    2.088    0.085
1461.348    0.832    0.116    2.109    0.069
1461.393    0.438    0.097    1.209    0.077
1463.721    0.472    0.101    1.137    0.080
1464.138    0.819    0.122    2.167    0.070
1466.034    0.741    0.162    2.166    0.094
1466.923    0.871    0.120    2.181    0.071
1468.323    0.774    0.159    2.191    0.089
1469.715    0.856    0.123    2.286    0.069
1470.590    0.762    0.161    2.213    0.091
1472.413    0.918    0.133    2.292    0.075
1472.840    0.660    0.172    2.346    0.082
1475.062    0.284    0.096    1.315    0.076
1475.253    0.881    0.129    2.308    0.071
1477.280    0.287    0.097    1.377    0.074
1477.998    0.947    0.130    2.338    0.073
1479.463    0.637    0.146    2.116    0.078
1480.750    0.752    0.122    2.221    0.058
1481.631    0.665    0.151    2.161    0.081
1483.491    0.789    0.124    2.275    0.059
1483.782    0.665    0.153    2.210    0.085
1485.906    0.720    0.151    2.223    0.088
1488.026    0.658    0.161    2.416    0.082
1488.959    0.740    0.134    2.503    0.060
1490.111    0.622    0.165    2.522    0.080
1491.685    0.668    0.134    2.538    0.059
1492.188    0.601    0.164    2.503    0.079
1494.236    0.605    0.163    2.495    0.077
1494.400    0.684    0.139    2.564    0.060
1496.282    0.558    0.166    2.544    0.077
1497.109    0.527    0.130    2.416    0.062
1498.293    0.340    0.163    2.448    0.085
1499.814    0.465    0.131    2.446    0.062
1500.290    0.283    0.167    2.428    0.085
1502.277    0.338    0.163    2.413    0.097
1502.515    0.425    0.143    2.442    0.065
1504.231    0.231    0.175    2.462    0.093
1505.141    0.403    0.143    2.482    0.065
1506.188    0.287    0.158    2.371    0.111
1507.882    0.325    0.129    2.498    0.062
1508.112    0.210    0.164    2.403    0.099
1510.014    0.225    0.159    2.391    0.114
1510.549    0.211    0.139    2.547    0.063
1511.921    0.101    0.172    2.464    0.092
1513.217    0.038    0.141    2.537    0.065
1513.887   -0.064    0.163    2.424    0.083
1515.875   -0.090    0.126    2.327    0.065
1515.918   -0.158    0.144    2.208    0.099
1518.015   -0.178    0.137    2.133    0.100
1518.528   -0.158    0.125    2.331    0.065
1520.171   -0.241    0.140    2.173    0.097
1521.176   -0.243    0.124    2.312    0.064
1522.360   -0.366    0.155    2.291    0.088
1523.814   -0.281    0.130    2.318    0.066
1524.553   -0.352    0.140    2.150    0.095
1526.724   -0.487    0.152    2.284    0.085
1528.843   -0.490    0.151    2.245    0.088
1529.070   -0.375    0.123    2.257    0.068
1530.891   -0.461    0.138    2.106    0.098
1531.681   -0.409    0.125    2.217    0.068
1532.857   -0.500    0.136    2.076    0.096
1534.307   -0.584    0.114    1.920    0.081
1534.705   -0.586    0.125    1.691    0.120
1536.452   -0.636    0.125    1.690    0.120
1536.843   -0.599    0.111    1.825    0.082
1538.069   -0.659    0.130    1.703    0.131
1539.502   -0.661    0.108    1.805    0.083
1539.911   -0.731    0.130    1.689    0.132
1542.078   -0.599    0.108    1.737    0.084
1544.662   -0.852    0.161    1.782    0.086
1547.235   -0.852    0.119    1.704    0.079
1549.804   -0.910    0.119    1.702    0.080
1552.363   -0.808    0.101    1.507    0.081
1554.912   -0.812    0.108    1.643    0.095
1557.462   -0.774    0.105    1.567    0.095
1559.996   -0.814    0.105    1.552    0.096
1562.532   -0.804    0.103    1.511    0.092
1565.004   -0.826    0.099    1.489    0.097
1567.574   -0.800    0.095    1.427    0.094
1570.074   -0.817    0.088    1.241    0.086
1573.823   -0.747    0.099    1.195    0.098
1577.556   -0.765    0.083    1.197    0.081
1580.035   -0.744    0.085    1.260    0.093
1582.509   -0.717    0.085    1.170    0.082
1584.973   -0.763    0.086    1.177    0.089
1587.428   -0.700    0.083    1.203    0.086
1589.891   -0.735    0.123    1.430    0.073
1592.273   -0.690    0.084    1.084    0.094
1594.764   -0.721    0.082    1.031    0.082
1597.186   -0.717    0.089    1.038    0.083
1599.605   -0.719    0.084    1.002    0.087
1602.020   -0.700    0.079    1.018    0.077
1604.425   -0.661    0.070    0.992    0.070
1606.821   -0.564    0.106    1.264    0.069
1609.213   -0.592    0.107    1.240    0.072
1611.596   -0.575    0.102    1.217    0.060
1613.970   -0.716    0.105    1.224    0.068
1616.346   -0.668    0.103    1.278    0.062
1618.654   -0.656    0.113    1.208    0.072
1621.058   -0.689    0.114    1.229    0.072
1623.395   -0.499    0.113    1.383    0.057
1625.734   -0.615    0.113    1.308    0.063
1628.064   -0.601    0.104    1.327    0.060
1630.385   -0.678    0.106    1.244    0.064
1632.702   -0.571    0.117    1.155    0.065
1635.011   -0.413    0.103    1.253    0.058
1637.311   -0.617    0.108    1.208    0.059
1639.601   -0.645    0.103    1.114    0.054
1641.894   -0.838    0.106    1.164    0.061
1644.121   -0.795    0.118    1.187    0.060
1646.442   -0.788    0.113    1.175    0.058
1648.692   -0.884    0.110    1.128    0.067
1650.950   -0.927    0.110    1.137    0.072
1653.193   -0.915    0.129    1.127    0.068
1655.433   -0.870    0.126    1.125    0.067
1657.665   -0.793    0.087    0.941    0.061
1659.888   -0.870    0.083    0.932    0.063
1662.102   -0.888    0.086    0.937    0.066
1664.308   -0.936    0.080    0.893    0.066
1666.517   -0.922    0.090    0.889    0.072
1668.660   -0.955    0.090    0.889    0.074
1670.891   -1.034    0.088    0.833    0.077
1673.063   -1.028    0.089    0.835    0.076
1675.232   -0.822    0.104    0.772    0.077
1677.392   -0.806    0.108    0.828    0.072
1679.545   -0.820    0.107    0.779    0.073
1681.694   -0.775    0.084    0.818    0.065
1683.829   -0.707    0.082    0.873    0.063
1685.957   -0.757    0.080    0.855    0.062
1688.087   -0.743    0.080    0.845    0.063
1690.159   -0.788    0.089    0.730    0.069
1692.306   -0.585    0.092    0.920    0.064
1694.400   -0.605    0.089    0.888    0.066
1696.492   -0.776    0.097    0.798    0.075
1698.576   -0.731    0.101    0.790    0.076
1700.646   -0.657    0.095    0.759    0.082
1702.714   -0.685    0.093    0.740    0.081
1704.773   -0.689    0.092    0.710    0.084
1706.825   -0.670    0.089    0.704    0.084
1708.874   -0.887    0.081    0.637    0.076
1710.872   -0.895    0.080    0.572    0.075
1712.938   -0.882    0.076    0.542    0.073
1714.953   -0.902    0.071    0.504    0.072
1716.965   -0.660    0.097    0.384    0.089
1718.969   -0.780    0.107    0.521    0.093
1724.930   -0.443    0.107    0.367    0.081
1726.904   -0.434    0.106    0.401    0.084
1730.827   -0.568    0.091    0.306    0.066
1735.678   -0.459    0.097    0.182    0.066
1739.528   -0.227    0.093    0.156    0.069
1745.241    0.022    0.053   -0.231    0.073
1749.001   -0.002    0.058   -0.240    0.072
1753.678   -0.218    0.054   -0.031    0.075
1759.212   -0.240    0.049    0.046    0.057
1763.766   -0.279    0.052    0.104    0.064
1767.385   -0.299    0.048    0.138    0.065
1770.965   -0.257    0.049    0.126    0.063
1774.511   -0.329    0.053    0.146    0.065
1778.029   -0.047    0.063    0.297    0.092
1781.509   -0.441    0.054    0.204    0.067
1784.971   -0.365    0.054    0.224    0.062
1790.094   -0.155    0.052    0.210    0.072
1793.471   -0.186    0.051    0.155    0.074
1796.806   -0.166    0.050    0.161    0.073
1800.129   -0.394    0.063    0.177    0.075
1803.415   -0.338    0.066    0.234    0.073
1806.669   -0.182    0.062    0.246    0.082
1809.896   -0.151    0.064    0.225    0.076
1813.082   -0.147    0.070    0.216    0.079
1816.251   -0.127    0.066    0.159    0.085
1819.390   -0.091    0.066    0.136    0.088
1822.497   -0.019    0.064    0.113    0.079
1825.562   -0.135    0.085    0.373    0.083
1828.623   -0.116    0.086    0.368    0.086
1831.643   -0.097    0.082    0.354    0.085
1834.637   -0.100    0.085    0.352    0.086
1838.336   -0.087    0.113    0.008    0.107
1841.997   -0.070    0.102   -0.008    0.100
1844.898   -0.058    0.106   -0.007    0.100
1847.754    0.213    0.073   -0.161    0.070
1852.035    0.174    0.100   -0.121    0.092
1854.976    0.171    0.108   -0.123    0.099
1858.008    0.188    0.110   -0.136    0.106
1861.147    0.211    0.115   -0.132    0.112
1864.365    0.185    0.125   -0.081    0.111
1869.276    0.165    0.073    0.088    0.091
1872.541    0.197    0.081    0.023    0.098
1875.750    0.181    0.085    0.061    0.108
1878.864    0.183    0.076    0.122    0.079
1887.394    0.488    0.098   -0.048    0.100
1889.902    0.483    0.104    0.030    0.119
1894.385    0.690    0.067   -0.230    0.052
